;  Optical constants for Au
;  
;  Concatenation of:
; 
;  Au_llnl_cxro + Au_palik
;   
;    Lambda (A)            n            k
;-----------------------------------------
      0.12398000       0.99999968    9.2447199e-09
      0.12499080       0.99999968    9.5210043e-09
      0.12600983       0.99999967    9.8057875e-09
      0.12703718       0.99999967    1.0099200e-08
      0.12807290       0.99999966    1.0400680e-08
      0.12911707       0.99999966    1.0711717e-08
      0.13016975       0.99999965    1.1031249e-08
      0.13123101       0.99999965    1.1362680e-08
      0.13230092       0.99999964    1.1705047e-08
      0.13337956       0.99999963    1.2057353e-08
      0.13446699       0.99999963    1.2420323e-08
      0.13556329       0.99999962    1.2790813e-08
      0.13666852       0.99999962    1.3172320e-08
      0.13778277       0.99999961    1.3561464e-08
      0.13890610       0.99999961    1.3956922e-08
      0.14003858       0.99999960    1.4360285e-08
      0.14118030       0.99999959    1.4772379e-08
      0.14233133       0.99999959    1.5194637e-08
      0.14349175       0.99999958    1.5637935e-08
      0.14466162       0.99999957    1.6103851e-08
      0.14584103       0.99999957    1.6593939e-08
      0.14703006       0.99999956    1.7104352e-08
      0.14822878       0.99999956    1.7588199e-08
      0.14943728       0.99999955    1.8075142e-08
      0.15065563       0.99999955    1.8630933e-08
      0.15188391       0.99999954    1.9169949e-08
      0.15312220       0.99999955    4.0475230e-09
      0.15437059       0.99999953    4.1738333e-09
      0.15562916       0.99999952    4.3043596e-09
      0.15689799       0.99999951    4.4383740e-09
      0.15817716       0.99999950    4.5762493e-09
      0.15946677       0.99999949    4.7191345e-09
      0.16076688       0.99999948    4.8649115e-09
      0.16207760       0.99999947    5.0168878e-09
      0.16339900       0.99999946    5.1724171e-09
      0.16473118       0.99999945    5.3334104e-09
      0.16607422       0.99999944    5.5000449e-09
      0.16742821       0.99999943    5.6715400e-09
      0.16879323       0.99999942    5.8468863e-09
      0.17016939       0.99999941    6.0301453e-09
      0.17155676       0.99999940    6.2171126e-09
      0.17295545       0.99999939    6.4102373e-09
      0.17436554       0.99999938    6.6092889e-09
      0.17578712       0.99999937    6.8154538e-09
      0.17722030       0.99999936    7.0267642e-09
      0.17866516       0.99999935    7.2459049e-09
      0.18012180       0.99999934    7.4707747e-09
      0.18159031       0.99999933    7.7032221e-09
      0.18307080       0.99999932    7.9422194e-09
      0.18456336       0.99999930    8.1890382e-09
      0.18606809       0.99999929    8.4439113e-09
      0.18758508       0.99999928    8.7063526e-09
      0.18911444       0.99999927    8.9772442e-09
      0.19065628       0.99999926    9.2553957e-09
      0.19221068       0.99999924    9.5440589e-09
      0.19377775       0.99999923    9.8390671e-09
      0.19535760       0.99999922    1.0146000e-08
      0.19695034       0.99999920    1.0459697e-08
      0.19855605       0.99999919    1.0784732e-08
      0.20017486       0.99999918    1.1120205e-08
      0.20180687       0.99999916    1.1464662e-08
      0.20345218       0.99999915    1.1820834e-08
      0.20511091       0.99999914    1.2188553e-08
      0.20678315       0.99999912    1.2565700e-08
      0.20846904       0.99999911    1.2955431e-08
      0.21016867       0.99999909    1.3358573e-08
      0.21188215       0.99999908    1.3769906e-08
      0.21360961       0.99999906    1.4196455e-08
      0.21535114       0.99999905    1.4636176e-08
      0.21710688       0.99999903    1.5090807e-08
      0.21887693       0.99999902    1.5557955e-08
      0.22066141       0.99999900    1.6039976e-08
      0.22246045       0.99999898    1.6537905e-08
      0.22427414       0.99999897    1.7050173e-08
      0.22610263       0.99999895    1.7576902e-08
      0.22794602       0.99999893    1.8121179e-08
      0.22980444       0.99999891    1.8678011e-08
      0.23167802       0.99999889    1.9258101e-08
      0.23356687       0.99999888    1.9849916e-08
      0.23547111       0.99999886    2.0465652e-08
      0.23739089       0.99999884    2.1096688e-08
      0.23932631       0.99999882    2.1747963e-08
      0.24127752       0.99999880    2.2421222e-08
      0.24324463       0.99999878    2.3109419e-08
      0.24522778       0.99999876    2.3827933e-08
      0.24722710       0.99999874    2.4561016e-08
      0.24924272       0.99999872    2.5315863e-08
      0.25127477       0.99999870    2.6096653e-08
      0.25332339       0.99999868    2.6901937e-08
      0.25538871       0.99999865    2.7731842e-08
      0.25747087       0.99999863    2.8584707e-08
      0.25957000       0.99999861    2.9466284e-08
      0.26168625       0.99999859    3.0374987e-08
      0.26381975       0.99999856    3.1310774e-08
      0.26597065       0.99999854    3.2275851e-08
      0.26813908       0.99999851    3.3270692e-08
      0.27032520       0.99999849    3.4297790e-08
      0.27252913       0.99999847    3.5355708e-08
      0.27475103       0.99999844    3.6445136e-08
      0.27699105       0.99999841    3.7567852e-08
      0.27924933       0.99999839    3.8719942e-08
      0.28152603       0.99999836    3.9912373e-08
      0.28382128       0.99999833    4.1137851e-08
      0.28613525       0.99999831    4.2406275e-08
      0.28846808       0.99999828    4.3702026e-08
      0.29081993       0.99999825    4.5051454e-08
      0.29319096       0.99999822    4.6429433e-08
      0.29558132       0.99999819    4.7865886e-08
      0.29799117       0.99999816    4.9331432e-08
      0.30042066       0.99999813    5.0850406e-08
      0.30286996       0.99999810    5.2411081e-08
      0.30533923       0.99999807    5.4025541e-08
      0.30782863       0.99999804    5.5688109e-08
      0.31033833       0.99999801    5.7388893e-08
      0.31286848       0.99999797    5.9150286e-08
      0.31541927       0.99999794    6.0964554e-08
      0.31799085       0.99999790    6.2828134e-08
      0.32058340       0.99999787    6.4759254e-08
      0.32319709       0.99999784    6.6743823e-08
      0.32583208       0.99999780    6.8786671e-08
      0.32848856       0.99999776    7.0895361e-08
      0.33116670       0.99999773    7.3058941e-08
      0.33386667       0.99999769    7.5295621e-08
      0.33658865       0.99999765    7.7598805e-08
      0.33933282       0.99999761    7.9966078e-08
      0.34209937       0.99999757    8.2416799e-08
      0.34488847       0.99999753    8.4931864e-08
      0.34770032       0.99999749    8.7527924e-08
      0.35053508       0.99999745    9.0205537e-08
      0.35339296       0.99999741    9.2964825e-08
      0.35627414       0.99999737    9.5800934e-08
      0.35917881       0.99999732    9.8716490e-08
      0.36210716       0.99999728    1.0173115e-07
      0.36505938       0.99999723    1.0482910e-07
      0.36803568       0.99999719    1.0802643e-07
      0.37103624       0.99999714    1.1131276e-07
      0.37406126       0.99999709    1.1471293e-07
      0.37711095       0.99999705    1.1820724e-07
      0.38018549       0.99999700    1.2179897e-07
      0.38328511       0.99999695    1.2551045e-07
      0.38641000       0.99999690    1.2934057e-07
      0.38956036       0.99999685    1.3327484e-07
      0.39273641       0.99999680    1.3733277e-07
      0.39593835       0.99999674    1.4151437e-07
      0.39916640       0.99999669    1.4582924e-07
      0.40242076       0.99999663    1.5025834e-07
      0.40570166       0.99999658    1.5484734e-07
      0.40900931       0.99999652    1.5918324e-07
      0.41234392       0.99999646    1.6296713e-07
      0.41570572       0.99999640    1.6766295e-07
      0.41909493       0.99999634    1.7277528e-07
      0.42251177       0.99999628    1.7806760e-07
      0.42595647       0.99999622    1.8349279e-07
      0.42942925       0.99999616    1.8911102e-07
      0.43293034       0.99999610    1.9486733e-07
      0.43645998       0.99999603    2.0083069e-07
      0.44001840       0.99999597    2.0693784e-07
      0.44360583       0.99999590    2.1326802e-07
      0.44722250       0.99999583    2.1974789e-07
      0.45086866       0.99999577    2.2646595e-07
      0.45454455       0.99999570    2.3333961e-07
      0.45825041       0.99999563    2.4046908e-07
      0.46198648       0.99999555    2.4776044e-07
      0.46575301       0.99999548    2.5532632e-07
      0.46955025       0.99999541    2.6306007e-07
      0.47337845       0.99999533    2.7108898e-07
      0.47723786       0.99999526    2.7929258e-07
      0.48112873       0.99999518    2.8781073e-07
      0.48505133       0.99999510    2.9651006e-07
      0.48900590       0.99999502    3.0554696e-07
      0.49299272       0.99999494    3.1477173e-07
      0.49701204       0.99999486    3.2435755e-07
      0.50106413       0.99999477    3.3414088e-07
      0.50514926       0.99999469    3.4430667e-07
      0.50926770       0.99999460    3.5468432e-07
      0.51341971       0.99999451    3.6546216e-07
      0.51760557       0.99999442    3.7646964e-07
      0.52182555       0.99999433    3.8789475e-07
      0.52607995       0.99999424    3.9956836e-07
      0.53036903       0.99999415    4.1167772e-07
      0.53469307       0.99999405    4.2405583e-07
      0.53905238       0.99999396    4.3688982e-07
      0.54344722       0.99999386    4.5001427e-07
      0.54787789       0.99999376    4.6361555e-07
      0.55234469       0.99999366    4.7753016e-07
      0.55684790       0.99999356    4.9194201e-07
      0.56138783       0.99999345    5.0669201e-07
      0.56596477       0.99999335    5.2196177e-07
      0.57057902       0.99999324    5.3759604e-07
      0.57523090       0.99999313    5.5377055e-07
      0.57992070       0.99999302    5.7033779e-07
      0.58464874       0.99999291    5.8747175e-07
      0.58941532       0.99999279    6.0502886e-07
      0.59422077       0.99999268    6.2317543e-07
      0.59906539       0.99999256    6.4177792e-07
      0.60394951       0.99999244    6.6099612e-07
      0.60887346       0.99999232    6.8070346e-07
      0.61383754       0.99999220    7.0105068e-07
      0.61884210       0.99999208    7.2192450e-07
      0.62388746       0.99999195    7.4346662e-07
      0.62897395       0.99999182    7.6557362e-07
      0.63410192       0.99999169    7.8837416e-07
      0.63927169       0.99999156    8.1178285e-07
      0.64448361       0.99999143    8.3591692e-07
      0.64973802       0.99999129    8.6070245e-07
      0.65503527       0.99999116    8.8624079e-07
      0.66037571       0.99999102    9.1247740e-07
      0.66575969       0.99999088    9.3950113e-07
      0.67118757       0.99999073    9.6727107e-07
      0.67665969       0.99999059    9.9585556e-07
      0.68217644       0.99999044    1.0252396e-06
      0.68773815       0.99999030    1.0554740e-06
      0.69334522       0.99999015    1.0865653e-06
      0.69899799       0.99998999    1.1185418e-06
      0.70469686       0.99998984    1.1514301e-06
      0.71044218       0.99998968    1.1852335e-06
      0.71623435       0.99998953    1.2200165e-06
      0.72207374       0.99998937    1.2557557e-06
      0.72796073       0.99998921    1.2925394e-06
      0.73389573       0.99998904    1.3303140e-06
      0.73987911       0.99998888    1.3691999e-06
      0.74591127       0.99998871    1.4091150e-06
      0.75199261       0.99998854    1.4502170e-06
      0.75812354       0.99998838    1.4923892e-06
      0.76430445       0.99998820    1.5358195e-06
      0.77053575       0.99998803    1.5803591e-06
      0.77681785       0.99998786    1.6262416e-06
      0.78315117       0.99998768    1.6732775e-06
      0.78953613       0.99998751    1.7217493e-06
      0.79597314       0.99998733    1.7714187e-06
      0.80246263       0.99998716    1.8226022e-06
      0.80900503       0.99998698    1.8750221e-06
      0.81560077       0.99998681    1.9290538e-06
      0.82225028       0.99998663    1.9843709e-06
      0.82895401       0.99998646    2.0413968e-06
      0.83571239       0.99998629    2.0997542e-06
      0.84252588       0.99998614    2.1599229e-06
      0.84939491       0.99998599    2.2214706e-06
      0.85631994       0.99998610    2.2850811e-06
      0.86330144       0.99998628    2.3501639e-06
      0.87033985       0.99998563    2.1064385e-06
      0.87743565       0.99998531    2.1698833e-06
      0.88458929       0.99998513    2.2356947e-06
      0.89180126       0.99998498    2.3030214e-06
      0.89907203       0.99998577    2.3726935e-06
      0.90640208       0.99998495    1.7527139e-06
      0.91379189       0.99998434    1.8067348e-06
      0.92124195       0.99998394    1.8619219e-06
      0.92875274       0.99998363    1.9192762e-06
      0.93632477       0.99998333    1.9778757e-06
      0.94395854       0.99998305    2.0388283e-06
      0.95165454       0.99998277    2.1010772e-06
      0.95941329       0.99998251    2.1658225e-06
      0.96723529       0.99998224    2.2319114e-06
      0.97512107       0.99998199    2.3007193e-06
      0.98307114       0.99998174    2.3709501e-06
      0.99108602       0.99998151    2.4440245e-06
      0.99916625       0.99998128    2.5186442e-06
       1.0073124       0.99998110    2.5962703e-06
       1.0155249       0.99998093    2.6755748e-06
       1.0238044       0.99998091    2.7579855e-06
       1.0321513       0.99998120    2.8421859e-06
       1.0405664       0.99998427    1.1744292e-06
       1.0490500       0.99998030    1.2091217e-06
       1.0576028       0.99997965    1.2449348e-06
       1.0662253       0.99997902    1.2815668e-06
       1.0749182       0.99997852    1.3195687e-06
       1.0836819       0.99997802    1.3584596e-06
       1.0925170       0.99997756    1.3987871e-06
       1.1014242       0.99997709    1.4400789e-06
       1.1104040       0.99997664    1.4828689e-06
       1.1194570       0.99997618    1.5267014e-06
       1.1285839       0.99997572    1.5721002e-06
       1.1377851       0.99997526    1.6186268e-06
       1.1470613       0.99997480    1.6667969e-06
       1.1564132       0.99997433    1.7161889e-06
       1.1658413       0.99997386    1.7673050e-06
       1.1753463       0.99997338    1.8197403e-06
       1.1849288       0.99997290    1.8739723e-06
       1.1945894       0.99997241    1.9296330e-06
       1.2043288       0.99997192    1.9871817e-06
       1.2141476       0.99997142    2.0462691e-06
       1.2240464       0.99997091    2.1073192e-06
       1.2340259       0.99997039    2.1700397e-06
       1.2440868       0.99996987    2.2348265e-06
       1.2542298       0.99996934    2.3014176e-06
       1.2644554       0.99996880    2.3701766e-06
       1.2747644       0.99996826    2.4408729e-06
       1.2851574       0.99996771    2.5138173e-06
       1.2956351       0.99996715    2.5888537e-06
       1.3061983       0.99996658    2.6662417e-06
       1.3168476       0.99996600    2.7458761e-06
       1.3275838       0.99996541    2.8279555e-06
       1.3384074       0.99996481    2.9124519e-06
       1.3493193       0.99996421    2.9994996e-06
       1.3603202       0.99996359    3.0891569e-06
       1.3714108       0.99996297    3.1814866e-06
       1.3825918       0.99996233    3.2766206e-06
       1.3938639       0.99996169    3.3745355e-06
       1.4052279       0.99996103    3.4754987e-06
       1.4166846       0.99996037    3.5793896e-06
       1.4282347       0.99995969    3.6865513e-06
       1.4398790       0.99995901    3.7967645e-06
       1.4516182       0.99995831    3.9104935e-06
       1.4634531       0.99995760    4.0273951e-06
       1.4753845       0.99995688    4.1480711e-06
       1.4874131       0.99995615    4.2720528e-06
       1.4995399       0.99995541    4.4000567e-06
       1.5117655       0.99995466    4.5314822e-06
       1.5240907       0.99995389    4.6672431e-06
       1.5365165       0.99995311    4.8065713e-06
       1.5490436       0.99995232    4.9505610e-06
       1.5616728       0.99995152    5.0982818e-06
       1.5744049       0.99995071    5.2510176e-06
       1.5872409       0.99994988    5.4076384e-06
       1.6001815       0.99994904    5.5696544e-06
       1.6132277       0.99994818    5.7357215e-06
       1.6263801       0.99994731    5.9076001e-06
       1.6396399       0.99994643    6.0837015e-06
       1.6530077       0.99994554    6.2658890e-06
       1.6664845       0.99994463    6.4524230e-06
       1.6800712       0.99994370    6.6455364e-06
       1.6937687       0.99994276    6.8431828e-06
       1.7075778       0.99994181    7.0479791e-06
       1.7214995       0.99994084    7.2575091e-06
       1.7355347       0.99993986    7.4747006e-06
       1.7496844       0.99993886    7.6968152e-06
       1.7639494       0.99993785    7.9269398e-06
       1.7783307       0.99993682    8.1621580e-06
       1.7928292       0.99993577    8.4060394e-06
       1.8074460       0.99993471    8.6552113e-06
       1.8221819       0.99993363    8.9136236e-06
       1.8370380       0.99993254    9.1775337e-06
       1.8520152       0.99993142    9.4514160e-06
       1.8671145       0.99993030    9.7310071e-06
       1.8823369       0.99992915    1.0021150e-05
       1.8976834       0.99992799    1.0317227e-05
       1.9131550       0.99992681    1.0624596e-05
       1.9287528       0.99992561    1.0938282e-05
       1.9444777       0.99992439    1.1263638e-05
       1.9603309       0.99992316    1.1595823e-05
       1.9763133       0.99992190    1.1940352e-05
       1.9924260       0.99992063    1.2292434e-05
       2.0086700       0.99991934    1.2659470e-05
       2.0250465       0.99991803    1.3034676e-05
       2.0415565       0.99991671    1.3424752e-05
       2.0582011       0.99991537    1.3818743e-05
       2.0749815       0.99991400    1.4192763e-05
       2.0918986       0.99991261    1.4584366e-05
       2.1089536       0.99991122    1.5043173e-05
       2.1261477       0.99990980    1.5502638e-05
       2.1434820       0.99990837    1.5929452e-05
       2.1609576       0.99990691    1.6369471e-05
       2.1785757       0.99990541    1.6837988e-05
       2.1963374       0.99990388    1.7318368e-05
       2.2142439       0.99990234    1.7817422e-05
       2.2322964       0.99990077    1.8329590e-05
       2.2504961       0.99989919    1.8861920e-05
       2.2688442       0.99989758    1.9407609e-05
       2.2873419       0.99989593    1.9971746e-05
       2.3059904       0.99989429    2.0563119e-05
       2.3247909       0.99989268    2.1205492e-05
       2.3437447       0.99989104    2.1811973e-05
       2.3628530       0.99988935    2.2323630e-05
       2.3821171       0.99988762    2.2890647e-05
       2.4015383       0.99988582    2.3558147e-05
       2.4211178       0.99988402    2.4229949e-05
       2.4408569       0.99988221    2.4899184e-05
       2.4607570       0.99988037    2.5580003e-05
       2.4808193       0.99987848    2.6271717e-05
       2.5010452       0.99987656    2.6994358e-05
       2.5214360       0.99987462    2.7756251e-05
       2.5419930       0.99987265    2.8536285e-05
       2.5627176       0.99987065    2.9335687e-05
       2.5836112       0.99986863    3.0163802e-05
       2.6046751       0.99986658    3.1023608e-05
       2.6259108       0.99986451    3.1908644e-05
       2.6473196       0.99986242    3.2819976e-05
       2.6689029       0.99986031    3.3758505e-05
       2.6906622       0.99985817    3.4724532e-05
       2.7125989       0.99985600    3.5713768e-05
       2.7347145       0.99985381    3.6726202e-05
       2.7570104       0.99985161    3.7773561e-05
       2.7794880       0.99984938    3.8853604e-05
       2.8021489       0.99984712    3.9943897e-05
       2.8249946       0.99984483    4.1047529e-05
       2.8480265       0.99984256    4.2211701e-05
       2.8712461       0.99984028    4.3424592e-05
       2.8946551       0.99983786    4.4537207e-05
       2.9182550       0.99983533    4.5596839e-05
       2.9420472       0.99983278    4.6959224e-05
       2.9660335       0.99983020    4.8501345e-05
       2.9902152       0.99982774    4.9941661e-05
       3.0145942       0.99982531    5.1346259e-05
       3.0391719       0.99982284    5.2822493e-05
       3.0639499       0.99982031    5.4346965e-05
       3.0889300       0.99981779    5.5889606e-05
       3.1141138       0.99981524    5.7458102e-05
       3.1395029       0.99981266    5.9078349e-05
       3.1650989       0.99981006    6.0737695e-05
       3.1909037       0.99980745    6.2457505e-05
       3.2169188       0.99980482    6.4219572e-05
       3.2431460       0.99980221    6.6036862e-05
       3.2695871       0.99979958    6.7895339e-05
       3.2962437       0.99979694    6.9757630e-05
       3.3231177       0.99979428    7.1649244e-05
       3.3502107       0.99979160    7.3621263e-05
       3.3775247       0.99978889    7.5640230e-05
       3.4050613       0.99978619    7.7741477e-05
       3.4328224       0.99978346    7.9890725e-05
       3.4608099       0.99978071    8.2161398e-05
       3.4890255       0.99977794    8.4486750e-05
       3.5174712       0.99977577    8.7079465e-05
       3.5461488       0.99977364    8.9744926e-05
       3.5750602       0.99977163    9.1516998e-05
       3.6042074       0.99976961    9.3259982e-05
       3.6335921       0.99976664    9.5078831e-05
       3.6632164       0.99976359    9.6931545e-05
       3.6930823       0.99976062    9.9486713e-05
       3.7231916       0.99975761    0.00010209925
       3.7535465       0.99975508    0.00010476350
       3.7841488       0.99975254    0.00010748335
       3.8150006       0.99975052    0.00011036030
       3.8461039       0.99974850    0.00011320425
       3.8774608       0.99974653    0.00011470455
       3.9090734       0.99974444    0.00011620856
       3.9409437       0.99974117    0.00011753826
       3.9730738       0.99973783    0.00011907619
       4.0054659       0.99973425    0.00012222375
       4.0381221       0.99973072    0.00012541910
       4.0710445       0.99972785    0.00012858699
       4.1042353       0.99972497    0.00013183445
       4.1376967       0.99972228    0.00013524568
       4.1714310       0.99971964    0.00013875298
       4.2054403       0.99971742    0.00014246628
       4.2397268       0.99971532    0.00014616492
       4.2742929       0.99971376    0.00014959218
       4.3091408       0.99971223    0.00015303705
       4.3442728       0.99971081    0.00015638634
       4.3796912       0.99970992    0.00015988402
       4.4153984       0.99971060    0.00016370584
       4.4513967       0.99971154    0.00016655262
       4.4876885       0.99971308    0.00016667702
       4.5242762       0.99971286    0.00016567041
       4.5611622       0.99970835    0.00016200072
       4.5983489       0.99970337    0.00016068478
       4.6358388       0.99969748    0.00016450917
       4.6736344       0.99969264    0.00016787760
       4.7117381       0.99968990    0.00017030673
       4.7501524       0.99968698    0.00017334088
       4.7888799       0.99968375    0.00017739459
       4.8279232       0.99968122    0.00018162639
       4.8672848       0.99967980    0.00018609523
       4.9069673       0.99967889    0.00019034535
       4.9469733       0.99967869    0.00019425132
       4.9873055       0.99967883    0.00019800304
       5.0279666       0.99967939    0.00020153669
       5.0689591       0.99968063    0.00020535343
       5.1102858       0.99968267    0.00020949279
       5.1519495       0.99968741    0.00021259426
       5.1939528       0.99969504    0.00021458364
       5.2362986       0.99970533    0.00021426645
       5.2789897       0.99971820    0.00021171032
       5.3220288       0.99972493    0.00019797263
       5.3654187       0.99972626    0.00017432798
       5.4091625       0.99972472    0.00016281047
       5.4532629       0.99972088    0.00016092235
       5.4977228       0.99971589    0.00013986821
       5.5425452       0.99971004    0.00010476361
       5.5877330       0.99968927    8.6474480e-05
       5.6332893       0.99965856    7.9057754e-05
       5.6792169       0.99963603    7.7818973e-05
       5.7255190       0.99961813    8.0221759e-05
       5.7721986       0.99960235    8.2630000e-05
       5.8192588       0.99958754    8.5064177e-05
       5.8667027       0.99957383    8.7597705e-05
       5.9145333       0.99956048    9.0205691e-05
       5.9627539       0.99954781    9.2853193e-05
       6.0113677       0.99953527    9.5548354e-05
       6.0603778       0.99952316    9.8265455e-05
       6.1097875       0.99951106    0.00010102463
       6.1596000       0.99949916    0.00010374119
       6.2098186       0.99948718    0.00010647933
       6.2604467       0.99947519    0.00010937730
       6.3114875       0.99946303    0.00011236244
       6.3629444       0.99945108    0.00011570819
       6.4148209       0.99943901    0.00011919529
       6.4671203       0.99942737    0.00012255982
       6.5198461       0.99941566    0.00012595064
       6.5730018       0.99940379    0.00012899216
       6.6265908       0.99939172    0.00013201845
       6.6806168       0.99937922    0.00013545977
       6.7350832       0.99936646    0.00013901891
       6.7899937       0.99935397    0.00014295348
       6.8453519       0.99934131    0.00014700027
       6.9011614       0.99932865    0.00015045116
       6.9574259       0.99931579    0.00015391141
       7.0141491       0.99930225    0.00015776861
       7.0713348       0.99928845    0.00016171804
       7.1289867       0.99927476    0.00016633328
       7.1871086       0.99926084    0.00017105659
       7.2457044       0.99924692    0.00017556357
       7.3047779       0.99923274    0.00018016721
       7.3643331       0.99921815    0.00018533616
       7.4243738       0.99920332    0.00019062561
       7.4849040       0.99918872    0.00019640946
       7.5459277       0.99917390    0.00020227750
       7.6074489       0.99915922    0.00020782227
       7.6694717       0.99914428    0.00021347870
       7.7320001       0.99912894    0.00021927237
       7.7950384       0.99911330    0.00022519783
       7.8585906       0.99909711    0.00023137922
       7.9226609       0.99908064    0.00023781874
       7.9872536       0.99906395    0.00024522880
       8.0523729       0.99904712    0.00025286991
       8.1180231       0.99903079    0.00026108158
       8.1842086       0.99901439    0.00026949016
       8.2509337       0.99899858    0.00027819699
       8.3182027       0.99898261    0.00028670536
       8.3860202       0.99896677    0.00029397352
       8.4543906       0.99895050    0.00030139682
       8.5233185       0.99893340    0.00030901246
       8.5928082       0.99891592    0.00031681839
       8.6628646       0.99889786    0.00032490053
       8.7334921       0.99887950    0.00033333868
       8.8046954       0.99886083    0.00034244948
       8.8764792       0.99884199    0.00035178234
       8.9488483       0.99882316    0.00036139649
       9.0218074       0.99880410    0.00037124792
       9.0953613       0.99878486    0.00038139130
       9.1695149       0.99876544    0.00039179022
       9.2442731       0.99874591    0.00040249537
       9.3196408       0.99872623    0.00041342238
       9.3956229       0.99870648    0.00042458266
       9.4722245       0.99868647    0.00043572883
       9.5494506       0.99866622    0.00044674573
       9.6273064       0.99864555    0.00045803139
       9.7057969       0.99862441    0.00046961092
       9.7849273       0.99860289    0.00048147560
       9.8647029       0.99858098    0.00049364417
       9.9451288       0.99855862    0.00050611729
       10.026211       0.99853578    0.00051890866
       10.107953       0.99851250    0.00053244908
       10.190362       0.99848876    0.00054676102
       10.273443       0.99846500    0.00056159760
       10.357202       0.99844118    0.00057694923
       10.441643       0.99841725    0.00059273247
       10.526773       0.99839317    0.00060893333
       10.612597       0.99836894    0.00062559473
       10.699120       0.99834451    0.00064269021
       10.786349       0.99831996    0.00066027550
       10.874289       0.99829521    0.00067831159
       10.962946       0.99827037    0.00069686878
       11.052326       0.99824532    0.00071589437
       11.142434       0.99822025    0.00073548220
       11.233278       0.99819498    0.00075555991
       11.324861       0.99816976    0.00077623600
       11.417192       0.99814438    0.00079742069
       11.510275       0.99811919    0.00081924667
       11.604117       0.99809388    0.00084160171
       11.698725       0.99806908    0.00086463834
       11.794103       0.99804428    0.00088822509
       11.890259       0.99802051    0.00091163877
       11.987199       0.99799690    0.00093528161
       12.084930       0.99797309    0.00095780483
       12.183457       0.99794899    0.00098026270
       12.282788       0.99792383     0.0010033102
       12.382928       0.99789811     0.0010268368
       12.483885       0.99787227     0.0010509796
       12.585665       0.99784613     0.0010756180
       12.688275       0.99782019     0.0011009100
       12.791721       0.99779400     0.0011267161
       12.896010       0.99776813     0.0011527768
       13.001150       0.99774203     0.0011792881
       13.107148       0.99771574     0.0012056059
       13.214009       0.99768913     0.0012323205
       13.321741       0.99766223     0.0012597061
       13.430352       0.99763498     0.0012876170
       13.539849       0.99760783     0.0013162340
       13.650238       0.99758036     0.0013453942
       13.761527       0.99755330     0.0013752975
       13.873723       0.99752594     0.0014057644
       13.986834       0.99750023     0.0014370119
       14.100868       0.99747426     0.0014688268
       14.215831       0.99744907     0.0014976342
       14.331731       0.99742354     0.0015269509
       14.448576       0.99739572     0.0015567454
       14.566374       0.99736757     0.0015870725
       14.685132       0.99733913     0.0016180377
       14.804859       0.99731035     0.0016495590
       14.925561       0.99728139     0.0016817434
       15.047248       0.99725211     0.0017145087
       15.169927       0.99722286     0.0017479605
       15.293606       0.99719341     0.0017820188
       15.418293       0.99716465     0.0018167845
       15.543997       0.99713564     0.0018518214
       15.670725       0.99710679     0.0018854803
       15.798487       0.99707741     0.0019197277
       15.927291       0.99704666     0.0019546115
       16.057145       0.99701555     0.0019901086
       16.188057       0.99698409     0.0020262723
       16.320037       0.99695227     0.0020630723
       16.453092       0.99692015     0.0021005587
       16.587233       0.99688769     0.0021387075
       16.722467       0.99685497     0.0021775695
       16.858803       0.99682191     0.0022171238
       16.996252       0.99678857     0.0022574264
       17.134820       0.99675495     0.0022985880
       17.274519       0.99672122     0.0023408646
       17.415356       0.99668738     0.0023839016
       17.557342       0.99665376     0.0024277478
       17.700486       0.99662003     0.0024723835
       17.844796       0.99658646     0.0025178541
       17.990283       0.99655288     0.0025641486
       18.136956       0.99651958     0.0026113114
       18.284825       0.99648641     0.0026593267
       18.433899       0.99645369     0.0027082319
       18.584189       0.99642194     0.0027580289
       18.735704       0.99639176     0.0028087542
       18.888454       0.99636261     0.0028587202
       19.042450       0.99633494     0.0029074009
       19.197701       0.99630597     0.0029548065
       19.354218       0.99627549     0.0030005116
       19.512011       0.99624386     0.0030469246
       19.671091       0.99621099     0.0030940552
       19.831467       0.99617747     0.0031419148
       19.993151       0.99614329     0.0031905158
       20.156154       0.99610863     0.0032398676
       20.320485       0.99607349     0.0032899846
       20.486156       0.99603796     0.0033408748
       20.653177       0.99600205     0.0033925551
       20.821561       0.99596583     0.0034450318
       20.991317       0.99592930     0.0034983242
       21.162457       0.99589258     0.0035524333
       21.334993       0.99585561     0.0036073823
       21.508935       0.99581864     0.0036631797
       21.684295       0.99578152     0.0037198491
       21.861085       0.99574451     0.0037766400
       22.039316       0.99570740     0.0038339071
       22.219001       0.99566962     0.0038918447
       22.400150       0.99563132     0.0039505804
       22.582776       0.99559274     0.0040101893
       22.766892       0.99555383     0.0040707122
       22.952508       0.99551476     0.0041321340
       23.139637       0.99547541     0.0041944995
       23.328293       0.99543601     0.0042577896
       23.518486       0.99539637     0.0043220540
       23.710230       0.99535684     0.0043872632
       23.903537       0.99531709     0.0044534760
       24.098420       0.99527772     0.0045204612
       24.294892       0.99523819     0.0045884258
       24.492966       0.99519875     0.0046567304
       24.692655       0.99515906     0.0047259374
       24.893972       0.99511922     0.0047961366
       25.096930       0.99507909     0.0048674110
       25.301543       0.99503921     0.0049397068
       25.507824       0.99499911     0.0050131124
       25.715787       0.99495947     0.0050875813
       25.925445       0.99491962     0.0051631980
       26.136813       0.99488049     0.0052398844
       26.349904       0.99484117     0.0053177531
       26.564732       0.99480298     0.0053967363
       26.781312       0.99476464     0.0054769407
       26.999657       0.99472830     0.0055582933
       27.219783       0.99469186     0.0056409064
       27.441703       0.99465853     0.0057216117
       27.665432       0.99462513     0.0058034631
       27.890986       0.99459075     0.0058831332
       28.118378       0.99455622     0.0059639771
       28.347625       0.99452070     0.0060458684
       28.578740       0.99448508     0.0061289611
       28.811740       0.99444999     0.0062131140
       29.046639       0.99441489     0.0062984971
       29.283454       0.99438084     0.0063849755
       29.522199       0.99434691     0.0064727147
       29.762891       0.99431465     0.0065615969
       30.005545       0.99428302     0.0066517681
       30.250177       0.99425584     0.0067430915
       30.496804       0.99422968     0.0068348968
       30.745441       0.99420859     0.0069233206
       30.996106       0.99418717     0.0070109551
       31.248814       0.99416333     0.0070904286
       31.503583       0.99413876     0.0071708702
       31.760428       0.99411069     0.0072521583
       32.019368       0.99408240     0.0073344306
       32.280419       0.99405313     0.0074175683
       32.543598       0.99402386     0.0075017062
       32.808923       0.99399444     0.0075867348
       33.076411       0.99396526     0.0076727839
       33.346079       0.99393658     0.0077597657
       33.617947       0.99390847     0.0078477859
       33.892031       0.99388156     0.0079367607
       34.168349       0.99385621     0.0080267853
       34.446920       0.99383401     0.0081177821
       34.727763       0.99381462     0.0082098534
       35.010895       0.99380036     0.0083029420
       35.296335       0.99378766     0.0083875051
       35.584103       0.99377731     0.0084564824
       35.874217       0.99376241     0.0085257979
       36.166696       0.99374007     0.0085953243
       36.461559       0.99371596     0.0086654072
       36.758827       0.99368924     0.0087360505
       37.058518       0.99366140     0.0088072647
       37.360653       0.99363208     0.0088790574
       37.665250       0.99360211     0.0089514448
       37.972331       0.99357135     0.0090244356
       38.281916       0.99354035     0.0090980174
       38.594025       0.99350909     0.0091721949
       38.908678       0.99347906     0.0092469712
       39.225897       0.99345022     0.0093223565
       39.545702       0.99342349     0.0093964651
       39.868114       0.99339864     0.0094695265
       40.193155       0.99337208     0.0095360792
       40.520846       0.99334419     0.0095975050
       40.851209       0.99331246     0.0096593366
       41.184265       0.99327798     0.0097215280
       41.520036       0.99324175     0.0097841697
       41.858545       0.99320440     0.0098471825
       42.199813       0.99316613     0.0099106224
       42.543864       0.99312732     0.0099744121
       42.890720       0.99308845      0.010038689
       43.240404       0.99304955      0.010103339
       43.592939       0.99301162      0.010168453
       43.948348       0.99297416      0.010233910
       44.306655       0.99294395      0.010299864
       44.667883       0.99291695      0.010366174
       45.032056       0.99289921      0.010418879
       45.399198       0.99288532      0.010466358
       45.769333       0.99285685      0.010497247
       46.142486       0.99282368      0.010522159
       46.518681       0.99278044      0.010547572
       46.897943       0.99273419      0.010572573
       47.280298       0.99268272      0.010598138
       47.665769       0.99262972      0.010623255
       48.054384       0.99257434      0.010648967
       48.446167       0.99251816      0.010674182
       48.841143       0.99246530      0.010697917
       49.239341       0.99241280      0.010720686
       49.640784       0.99235599      0.010722573
       50.045501       0.99229822      0.010720215
       50.453517       0.99222390      0.010719002
       50.864859       0.99214698      0.010716626
       51.279556       0.99206306      0.010715508
       51.697633       0.99197763      0.010713159
       52.119119       0.99189207      0.010711995
       52.544041       0.99180553      0.010709524
       52.972427       0.99172209      0.010698069
       53.404306       0.99163781      0.010684696
       53.839707       0.99153677      0.010650353
       54.278657       0.99143399      0.010613767
       54.721185       0.99131401      0.010579495
       55.167322       0.99119189      0.010543187
       55.617096       0.99106054      0.010509179
       56.070536       0.99092698      0.010473247
       56.527674       0.99078910      0.010439341
       56.988539       0.99065017      0.010403626
       57.453161       0.99052031      0.010369874
       57.921571       0.99038827      0.010327355
       58.393800       0.99025240      0.010232195
       58.869879       0.99010774      0.010134119
       59.349839       0.98991892      0.010037220
       59.833713       0.98972358     0.0099381109
       60.321531       0.98950829     0.0098430539
       60.813327       0.98928700     0.0097460334
       61.309132       0.98905251     0.0096527052
       61.808979       0.98881155     0.0095550066
       62.312902       0.98855810     0.0094507371
       62.820933       0.98829414     0.0093440958
       63.333106       0.98800636     0.0092383413
       63.849455       0.98770905     0.0091313557
       64.370013       0.98739444     0.0090279875
       64.894816       0.98706994     0.0089235750
       65.423897       0.98672941     0.0088223076
       65.957292       0.98637817     0.0087203299
       66.495035       0.98601082     0.0086213597
       67.037163       0.98563189     0.0085221882
       67.583710       0.98523662     0.0084263208
       68.134713       0.98482931     0.0083306979
       68.690209       0.98440627     0.0082384516
       69.250234       0.98397000     0.0081461133
       69.814824       0.98351710     0.0080558226
       70.384018       0.98304881     0.0079655963
       70.957852       0.98256163     0.0078770917
       71.536364       0.98205055     0.0077889562
       72.119593       0.98151009     0.0077024479
       72.707578       0.98094041     0.0076395712
       73.300355       0.98033672     0.0076069756
       73.897966       0.97974310     0.0075889367
       74.500449       0.97916241     0.0075876680
       75.107844       0.97857349     0.0075864226
       75.720191       0.97797624     0.0075852076
       76.337530       0.97736279     0.0075839958
       76.959903       0.97673317     0.0075827046
       77.587350       0.97607868     0.0075814776
       78.219912       0.97540085     0.0075801247
       78.857631       0.97469856     0.0076214145
       79.500550       0.97397401     0.0076956815
       80.148710       0.97325977     0.0077785253
       80.802155       0.97254838     0.0078676879
       81.460927       0.97182949     0.0079578180
       82.125070       0.97110061     0.0080489988
       82.794628       0.97035705     0.0081412067
       83.469644       0.96959881     0.0082345196
       84.150164       0.96880963     0.0083288554
       84.836232       0.96799699     0.0084243173
       85.527894       0.96714068     0.0085536244
       86.225195       0.96625511     0.0086996373
       86.928180       0.96538349     0.0088861468
       87.636897       0.96450751     0.0090912903
       88.351392       0.96362840     0.0093016086
       89.071713       0.96273733     0.0095163465
       89.797906       0.96182722     0.0097365322
       90.530020       0.96089912     0.0099612906
       91.268102       0.95993223      0.010191788
       92.012202       0.95894112      0.010427020
       92.762369       0.95789001      0.010761561
       93.518651       0.95680902      0.011125084
       94.281100       0.95579223      0.011546712
       95.049764       0.95477302      0.011987196
       95.824696       0.95379946      0.012450080
       96.605945       0.95281869      0.012924880
       97.393564       0.95188075      0.013354277
       98.187605       0.95093416      0.013785125
       98.988119       0.94993366      0.014206289
       99.795159       0.94891140      0.014634067
       100.60878       0.94786784      0.015078546
       101.42903       0.94680527      0.015532571
       102.25597       0.94572390      0.016004418
       103.08966       0.94462312      0.016486168
       103.93014       0.94350048      0.016987106
       104.77747       0.94235762      0.017498408
       105.63171       0.94118467      0.018039487
       106.49292       0.93999091      0.018592430
       107.36114       0.93878392      0.019188807
       108.23645       0.93755588      0.019798062
       109.11889       0.93631585      0.020433054
       110.00852       0.93505387      0.021082092
       110.90541       0.93377104      0.021758051
       111.80961       0.93246320      0.022449358
       112.72119       0.93111206      0.023169034
       113.64019       0.92973132      0.023910911
       114.56669       0.92828682      0.024721649
       115.50074       0.92682445      0.025568162
       116.44241       0.92538315      0.026542716
       117.39175       0.92392829      0.027543502
       118.34883       0.92250622      0.028593174
       119.31372       0.92107263      0.029671842
       120.28647       0.91966885      0.030801857
       121.26716       0.91825930      0.031956805
       122.25584       0.91689089      0.033140177
       123.25258       0.91550122      0.034336851
       124.25744       0.91409290      0.035522482
       125.27050       0.91265933      0.036741399
       126.29182       0.91119660      0.038009633
       127.32147       0.90969931      0.039314294
       128.35951       0.90815187      0.040670894
       129.40601       0.90655528      0.042111148
       130.46104       0.90488099      0.043702875
       131.52468       0.90325932      0.045408083
       132.59699       0.90176984      0.047306286
       133.67804       0.90034870      0.049270653
       134.76790       0.89906811      0.051322154
       135.86665       0.89784062      0.053362128
       136.97436       0.89670997      0.055357151
       138.09110       0.89561853      0.057421038
       139.21694       0.89459093      0.059567123
       140.35196       0.89368913      0.061788796
       141.49624       0.89295840      0.064096992
       142.64984       0.89240864      0.066320532
       143.81285       0.89207880      0.068432339
       144.98535       0.89203968      0.070588184
       146.16740       0.89232055      0.072788998
       147.35909       0.89245411      0.073691800
       148.56049       0.89244032      0.073293304
       149.77169       0.89133384      0.073620624
       150.99277       0.88923089      0.074608748
       152.22379       0.88747839      0.076032101
       153.46486       0.88601038      0.077819957
       154.71604       0.88466298      0.079651324
       155.97743       0.88340132      0.081524382
       157.24910       0.88223627      0.083442990
       158.53114       0.88113247      0.085404536
       159.82362       0.88018071      0.087221337
       161.12665       0.87931924      0.088962563
       162.44030       0.87827656      0.090608218
       163.76466       0.87712952      0.092214106
       165.09982       0.87585565      0.093848879
       166.44586       0.87451131      0.095512208
       167.80288       0.87302849      0.097321121
       169.17096       0.87147319      0.099212440
       170.55019       0.86995880       0.10120908
       171.94067       0.86844835       0.10326915
       173.34249       0.86687427       0.10537390
       174.75573       0.86526420       0.10751908
       176.18050       0.86343640       0.10985474
       177.61688       0.86152331       0.11227860
       179.06498       0.85977527       0.11526793
       180.52487       0.85805293       0.11845020
       181.99668       0.85666351       0.12173654
       183.48048       0.85533788       0.12509683
       184.97638       0.85428930       0.12856833
       186.48447       0.85328848       0.13211664
       188.00486       0.85266537       0.13578365
       189.53765       0.85210528       0.13953049
       191.08293       0.85192691       0.14302845
       192.64081       0.85180982       0.14655425
       194.21139       0.85211300       0.15013618
       195.79478       0.85248060       0.15378538
       197.39107       0.85384209       0.15660432
       199.00038       0.85531859       0.15941423
       200.62281       0.85589397       0.16132504
       202.25847       0.85646709       0.16322608
       203.90747       0.85667965       0.16514643
       205.56990       0.85691222       0.16709195
       207.24590       0.85718995       0.16905838
       208.93555       0.85750147       0.17102801
       210.63898       0.85805065       0.17241388
       212.35630       0.85858456       0.17378864
       214.08762       0.85839882       0.17482439
       215.83306       0.85819029       0.17586302
       217.59272       0.85758893       0.17691112
       219.36674       0.85695436       0.17796229
       221.15521       0.85601196       0.17902254
       222.95827       0.85501141       0.18008614
       224.77603       0.85364687       0.18115936
       226.60860       0.85217178       0.18231345
       228.45612       0.85015348       0.18390088
       230.31870       0.84816346       0.18557520
       232.19647       0.84641147       0.18759847
       234.08954       0.84464088       0.18964532
       235.99805       0.84286356       0.19171235
       237.92212       0.84104111       0.19380369
       239.86188       0.83911876       0.19591703
       241.81745       0.83708078       0.19805479
       243.78896       0.83474549       0.20021417
       245.77655       0.83216851       0.20260021
       247.78034       0.82900444       0.20554793
       249.80047       0.82604291       0.20878067
       251.83707       0.82363929       0.21263057
       253.89028       0.82135297       0.21655015
       255.96022       0.81935676       0.22054407
       258.04704       0.81744022       0.22460987
       260.15087       0.81569925       0.22875137
       262.27186       0.81405254       0.23292959
       264.41013       0.81258217       0.23712026
       266.56584       0.81114864       0.24135734
       268.73913       0.80977910       0.24562769
       270.93013       0.80848944       0.24997312
       273.13900       0.80731670       0.25439594
       275.36588       0.80633216       0.25889626
       277.61091       0.80559151       0.26347603
       279.87424       0.80506950       0.26773924
       282.15603       0.80480280       0.27161896
       284.45642       0.80428096       0.27539393
       286.77557       0.80348581       0.27905389
       289.11362       0.80257479       0.28276322
       291.47073       0.80155157       0.28652282
       293.84707       0.80046834       0.29033176
       296.24277       0.79933236       0.29419143
       298.65801       0.79813937       0.29810155
       301.09294       0.79690036       0.30206402
       303.54772       0.79557516       0.30607943
       306.02252       0.79418593       0.31014989
       308.51749       0.79264049       0.31438237
       311.03281       0.79098893       0.31874326
       313.56863       0.78943135       0.32330086
       316.12512       0.78792532       0.32800388
       318.70246       0.78645152       0.33277370
       321.30081       0.78499125       0.33761392
       323.92034       0.78350299       0.34252364
       326.56123       0.78199725       0.34750648
       329.22366       0.78037855       0.35255954
       331.90778       0.77870552       0.35768751
       334.61380       0.77665997       0.36324787
       337.34187       0.77446044       0.36902760
       340.09219       0.77272328       0.37549841
       342.86492       0.77113231       0.38227359
       345.66027       0.76993591       0.38917529
       348.47840       0.76885560       0.39619823
       351.31951       0.76808977       0.40335128
       354.18379       0.76741233       0.41062930
       357.07142       0.76704220       0.41803398
       359.98258       0.76675530       0.42556584
       362.91749       0.76677506       0.43322868
       365.87632       0.76687598       0.44102300
       368.85927       0.76729772       0.44896386
       371.86655       0.76780201       0.45704250
       374.89834       0.76852200       0.46526993
       377.95485       0.76930984       0.47363930
       381.03628       0.76970333       0.48344774
       384.14283       0.77010031       0.49354093
       387.27471       0.77451864       0.50660845
       390.43212       0.77929596       0.52008479
       393.61528       0.79070734       0.52836414
       396.82438       0.80261290       0.53662155
       400.05966       0.81067516       0.54010868
       403.32130       0.81893808       0.54359171
       406.60954       0.82705666       0.54711055
       409.92459       0.83549641       0.55044904
       413.26667       0.84629372       0.54957260
       413.267 0.887      0.603000
       420.271 0.900      0.601000
       427.517 0.905      0.599000
       442.786 0.901      0.607000
       459.185 0.895      0.635000
       469.977 0.855      0.548000
       476.846 0.896      0.679000
       479.985 0.846      0.565000
       490.040 0.846      0.600000
       499.919 0.850      0.645000
       509.996 0.860      0.695000
       520.050 0.872      0.740000
       530.056 0.890      0.795000
       539.983 0.915      0.825000
       550.044 0.950      0.840000
       559.982 0.985      0.848000
       570.023 1.022      0.850000
       579.888 1.055      0.842000
       590.100 1.085      0.830000
       600.097 1.113      0.813000
       609.838 1.134      0.795000
       619.900 1.146      0.770000
       629.980 1.153      0.750000
       640.062 1.157      0.730000
       650.131 1.155      0.710000
       659.819 1.140      0.700000
       669.800 1.125      0.694000
       680.088 1.107      0.687000
       689.928 1.088      0.680000
       700.057 1.075      0.678000
       710.080 1.060      0.680000
       719.977 1.050      0.685000
       730.153 1.042      0.690000
       740.179 1.038      0.697000
       750.030 1.033      0.704000
       760.147 1.030      0.713000
       770.062 1.029      0.720000
       779.748 1.028      0.730000
       790.185 1.028      0.739000
       799.871 1.029      0.745000
       809.797 1.030      0.752000
       819.974 1.033      0.759000
       829.853 1.037      0.765000
       839.973 1.041      0.770000
       849.760 1.048      0.775000
       859.778 1.053      0.780000
       870.035 1.061      0.784000
       879.915 1.070      0.789000
       890.022 1.080      0.793000
       899.710 1.090      0.798000
       910.279 1.100      0.801000
       919.733 1.110      0.806000
       930.083 1.121      0.809000
       939.955 1.133      0.812000
       950.038 1.146      0.815000
       959.598 1.159      0.819000
       970.110 1.170      0.823000
       980.079 1.180      0.826000
       990.256 1.190      0.831000
       999.839 1.200      0.836000
       1009.61 1.207      0.842000
       1019.57 1.210      0.848000
       1029.73 1.213      0.853000
       1040.10 1.215      0.860000
       1049.79 1.217      0.865000
       1059.66 1.217      0.870000
       1069.72 1.218      0.878000
       1079.97 1.218      0.885000
       1090.41 1.220      0.893000
       1100.09 1.222      0.900000
       1109.94 1.223      0.907000
       1119.96 1.225      0.914000
       1130.17 1.228      0.922000
       1139.52 1.232      0.927000
       1150.09 1.237      0.932000
       1159.78 1.242      0.935000
       1169.62 1.247      0.942000
       1179.64 1.250      0.950000
       1189.83 1.255      0.955000
       1200.19 1.260      0.962000
       1209.56 1.265      0.967000
       1220.28 1.270      0.975000
       1229.96 1.275      0.982000
       1239.80 1.280      0.987000
       1249.92 1.285      0.994000
       1259.96 1.290       1.00000
       1269.90 1.295       1.00500
       1279.99 1.300       1.01200
       1289.98 1.304       1.01700
       1299.99 1.308       1.02000
       1309.88 1.313       1.02700
       1319.92 1.318       1.03200
       1329.97 1.323       1.03800
       1339.89 1.328       1.04500
       1349.96 1.333       1.05000
       1359.88 1.338       1.05300
       1369.94 1.345       1.05800
       1380.01 1.350       1.06300
       1389.91 1.355       1.06700
       1399.95 1.360       1.07200
       1449.89 1.386       1.08900
       1499.88 1.419       1.10200
       1549.94 1.450       1.10800
       1599.95 1.483       1.10600
       1649.99 1.512       1.09300
       1699.99 1.519       1.07000
       1749.89 1.500       1.07000
       1799.94 1.470       1.08500
       1849.90 1.442       1.10700
       1899.79 1.427       1.13500
       1949.98 1.424       1.17000
       2000.00 1.427       1.21500
       2066.33 1.422       1.30600
       2101.36 1.430       1.33400
       2137.59 1.432       1.36400
       2175.09 1.438       1.38800
       2213.93 1.442       1.41800
       2254.18 1.452       1.44200
       2295.93 1.454       1.47800
       2339.25 1.462       1.51000
       2384.23 1.470       1.55000
       2430.98 1.478       1.59000
       2479.60 1.484       1.63600
       2530.20 1.490       1.69800
       2582.92 1.504       1.74800
       2637.87 1.546       1.78400
       2695.22 1.598       1.82200
       2755.11 1.648       1.85200
       2817.73 1.690       1.88200
       2883.26 1.742       1.90000
       2951.90 1.776       1.91800
       3023.90 1.812       1.92000
       3099.50 1.830       1.91600
       3178.97 1.840       1.90400
       3262.63 1.824       1.87800
       3350.81 1.798       1.86000
       3443.89 1.766       1.84600
       3542.29 1.740       1.84800
       3646.47 1.716       1.86200
       3756.97 1.696       1.90600
       3874.38 1.674       1.93600
       3999.35 1.658       1.95600
       4132.67 1.636       1.95800
       4275.17 1.616       1.94000
       4427.86 1.562       1.90400
       4591.85 1.426       1.84600
       4768.46 1.242       1.79600
       4959.20 0.916       1.84000
       5165.83 0.608       2.12000
       5390.44 0.402       2.54000
       5635.45 0.306       2.88000
       6525.26 0.166       3.15000
       6887.78 0.160       3.80000
       7292.94 0.164       4.35000
       7748.75 0.174       4.86000
       8265.33 0.188       5.39000
       8855.71 0.210       5.88000
       9536.92 0.236       6.47000
       10331.7 0.272       7.07000
       11270.9 0.312       7.93000
       12398.0 0.372       8.77000
       12651.0 0.389       8.09000
       12914.6 0.403       8.25000
       13189.4 0.419       8.42000
       13476.1 0.436       8.59000
       13775.6 0.454       8.77000
       13775.6 0.458       9.72000
       14088.6 0.473       8.96000
       14416.3 0.493       9.15000
       14759.5 0.515       9.36000
       15119.5 0.537       9.58000
       15497.5 0.559       9.81000
       15497.5 0.550       11.5000
       15894.9 0.583       10.1000
       16313.2 0.609       10.3000
       16754.1 0.636       10.6000
       17219.4 0.665       10.9000
       17711.4 0.696       11.2000
       17711.4 0.726       12.9000
       18232.4 0.730       11.5000
       18784.8 0.767       11.9000
       19371.9 0.807       12.2000
       19996.8 0.850       12.6000
       20663.3 0.896       13.0000
       20663.3 0.976       15.1000
       21375.9 0.947       13.4000
       22139.3 1.002       13.9000
       22959.3 1.063       14.4000
       23842.3 1.130       14.9000
       24796.0 1.205       15.5000
       25829.2 1.287       16.1000
       26952.2 1.379       16.8000
       28177.3 1.482       17.5000
       29519.0 1.598       18.3000
       30995.0 1.728       19.2000
       31789.7 1.800       19.7000
       32626.3 1.876       20.2000
       33508.1 1.958       20.7000
       34438.9 2.046       21.3000
       35422.9 2.141       21.9000
       36464.7 2.242       22.5000
       37569.7 2.352       23.1000
       38743.8 2.471       23.9000
       39993.5 2.600       24.6000
       41326.7 2.749       25.4000
       42751.7 2.912       26.3000
       44278.6 3.091       27.2000
       45918.5 3.289       28.2000
       47684.6 3.507       29.3000
       49592.0 3.748       30.5000
       51658.3 4.007       31.7000
       53904.3 4.292       32.9000
       56354.5 4.611       34.3000
       59038.1 4.971       35.9000
       61990.0 5.423       37.5000
       63579.5 5.684       38.3000
       65252.6 5.966       39.1000
       67016.2 6.270       40.1000
       68877.8 6.598       41.0000
       70845.7 6.937       42.0000
       72929.4 7.282       43.0000
       75139.4 7.655       44.1000
       77487.5 8.060       45.2000
       79987.1 8.500       46.4000
       82653.3 9.016       47.6000
       85503.5 9.582       48.8000
       88557.1 10.21       50.2000
       91837.0 10.84       51.6000
       95369.2 11.51       53.1000
       99184.0 12.24       54.7000
