;  Optical constants for Ni.
;  Density = 8.9000000 g/cm3
;   
;  Computed from the atomic scattering factors from 
;  CXRO <http://www-cxro.lbl.gov> and
;  LLNL <http://www-phys.llnl.gov/V_Div/scattering/asf.html>.
;   
;  Lambda (A) n k
;-----------------
      0.12398000       0.99999982    2.3251310e-10
      0.12499080       0.99999982    2.4033037e-10
      0.12600983       0.99999982    2.4841989e-10
      0.12703718       0.99999982    2.5678525e-10
      0.12807290       0.99999981    2.6540631e-10
      0.12911707       0.99999981    2.7433725e-10
      0.13016975       0.99999981    2.8353647e-10
      0.13123101       0.99999980    2.9305862e-10
      0.13230092       0.99999980    3.0290114e-10
      0.13337956       0.99999980    3.1306365e-10
      0.13446699       0.99999979    3.2364145e-10
      0.13556329       0.99999979    3.3445479e-10
      0.13666852       0.99999979    3.4575844e-10
      0.13778277       0.99999978    3.5730079e-10
      0.13890610       0.99999978    3.6931997e-10
      0.14003858       0.99999978    3.8172700e-10
      0.14118030       0.99999977    3.9454030e-10
      0.14233133       0.99999977    4.0783524e-10
      0.14349175       0.99999976    4.2145554e-10
      0.14466162       0.99999976    4.3568218e-10
      0.14584103       0.99999976    4.5020218e-10
      0.14703006       0.99999975    4.6535599e-10
      0.14822878       0.99999975    4.8098031e-10
      0.14943728       0.99999974    4.9707954e-10
      0.15065563       0.99999974    5.1376125e-10
      0.15188391       0.99999974    5.3102742e-10
      0.15312220       0.99999973    5.4885450e-10
      0.15437059       0.99999973    5.6729581e-10
      0.15562916       0.99999972    5.8631487e-10
      0.15689799       0.99999972    6.0596314e-10
      0.15817716       0.99999971    6.2626771e-10
      0.15946677       0.99999971    6.4725365e-10
      0.16076688       0.99999970    6.6891364e-10
      0.16207760       0.99999970    6.9144158e-10
      0.16339900       0.99999969    7.1451593e-10
      0.16473118       0.99999969    7.3847293e-10
      0.16607422       0.99999968    7.6325058e-10
      0.16742821       0.99999968    7.8880507e-10
      0.16879323       0.99999967    8.1521661e-10
      0.17016939       0.99999967    8.4254034e-10
      0.17155676       0.99999966    8.7083230e-10
      0.17295545       0.99999966    9.0005940e-10
      0.17436554       0.99999965    9.3015277e-10
      0.17578712       0.99999965    9.6142211e-10
      0.17722030       0.99999964    9.9350665e-10
      0.17866516       0.99999963    1.0268670e-09
      0.18012180       0.99999963    1.0611492e-09
      0.18159031       0.99999962    1.0966816e-09
      0.18307080       0.99999962    1.1332825e-09
      0.18456336       0.99999961    1.1711769e-09
      0.18606809       0.99999960    1.2104089e-09
      0.18758508       0.99999960    1.2508893e-09
      0.18911444       0.99999959    1.2927775e-09
      0.19065628       0.99999958    1.3358525e-09
      0.19221068       0.99999958    1.3807147e-09
      0.19377775       0.99999957    1.4265914e-09
      0.19535760       0.99999956    1.4745090e-09
      0.19695034       0.99999955    1.5235145e-09
      0.19855605       0.99999955    1.5744657e-09
      0.20017486       0.99999954    1.6271802e-09
      0.20180687       0.99999953    1.6813921e-09
      0.20345218       0.99999952    1.7376437e-09
      0.20511091       0.99999952    1.7958450e-09
      0.20678315       0.99999951    1.8555830e-09
      0.20846904       0.99999950    1.9172335e-09
      0.21016867       0.99999949    1.9811874e-09
      0.21188215       0.99999948    2.0464593e-09
      0.21360961       0.99999948    2.1143499e-09
      0.21535114       0.99999947    2.1843633e-09
      0.21710688       0.99999946    2.2569132e-09
      0.21887693       0.99999945    2.3315736e-09
      0.22066141       0.99999944    2.4087858e-09
      0.22246045       0.99999943    2.4887374e-09
      0.22427414       0.99999942    2.5711301e-09
      0.22610263       0.99999941    2.6557834e-09
      0.22794602       0.99999940    2.7434295e-09
      0.22980444       0.99999939    2.8339363e-09
      0.23167802       0.99999938    2.9274719e-09
      0.23356687       0.99999937    3.0241942e-09
      0.23547111       0.99999936    3.1241091e-09
      0.23739089       0.99999935    3.2272927e-09
      0.23932631       0.99999934    3.3338410e-09
      0.24127752       0.99999933    3.4438460e-09
      0.24324463       0.99999932    3.5574170e-09
      0.24522778       0.99999931    3.6749121e-09
      0.24722710       0.99999930    3.7963774e-09
      0.24924272       0.99999929    3.9214530e-09
      0.25127477       0.99999927    4.0503723e-09
      0.25332339       0.99999926    4.1834364e-09
      0.25538871       0.99999925    4.3209894e-09
      0.25747087       0.99999924    4.4632834e-09
      0.25957000       0.99999922    4.6101352e-09
      0.26168625       0.99999921    4.7616612e-09
      0.26381975       0.99999920    4.9179679e-09
      0.26597065       0.99999919    5.0799846e-09
      0.26813908       0.99999917    5.2471885e-09
      0.27032520       0.99999916    5.4198847e-09
      0.27252913       0.99999915    5.5982873e-09
      0.27475103       0.99999913    5.7823584e-09
      0.27699105       0.99999912    5.9724400e-09
      0.27924933       0.99999910    6.1677509e-09
      0.28152603       0.99999909    6.3704722e-09
      0.28382128       0.99999907    6.5791217e-09
      0.28613525       0.99999906    6.7956544e-09
      0.28846808       0.99999904    7.0169374e-09
      0.29081993       0.99999903    7.2478629e-09
      0.29319096       0.99999901    7.4837727e-09
      0.29558132       0.99999899    7.7306378e-09
      0.29799117       0.99999898    7.9825698e-09
      0.30042066       0.99999896    8.2444108e-09
      0.30286996       0.99999894    8.5138075e-09
      0.30533923       0.99999893    8.7932183e-09
      0.30782863       0.99999891    9.0814803e-09
      0.31033833       0.99999889    9.3765243e-09
      0.31286848       0.99999887    9.6826049e-09
      0.31541927       0.99999885    9.9984687e-09
      0.31799085       0.99999883    1.0323369e-08
      0.32058340       0.99999882    1.0660943e-08
      0.32319709       0.99999880    1.1008371e-08
      0.32583208       0.99999878    1.1366616e-08
      0.32848856       0.99999876    1.1736941e-08
      0.33116670       0.99999874    1.2117294e-08
      0.33386667       0.99999871    1.2511398e-08
      0.33658865       0.99999869    1.2917932e-08
      0.33933282       0.99999867    1.3336379e-08
      0.34209937       0.99999865    1.3770657e-08
      0.34488847       0.99999863    1.4216862e-08
      0.34770032       0.99999861    1.4678452e-08
      0.35053508       0.99999858    1.5155455e-08
      0.35339296       0.99999856    1.5648085e-08
      0.35627414       0.99999854    1.6155373e-08
      0.35917881       0.99999851    1.6677969e-08
      0.36210716       0.99999849    1.7219643e-08
      0.36505938       0.99999846    1.7777090e-08
      0.36803568       0.99999844    1.8353639e-08
      0.37103624       0.99999841    1.8947078e-08
      0.37406126       0.99999838    1.9562662e-08
      0.37711095       0.99999836    2.0195356e-08
      0.38018549       0.99999833    2.0845644e-08
      0.38328511       0.99999830    2.1519023e-08
      0.38641000       0.99999828    2.2215355e-08
      0.38956036       0.99999825    2.2931561e-08
      0.39273641       0.99999822    2.3671699e-08
      0.39593835       0.99999819    2.4435762e-08
      0.39916640       0.99999816    2.5225717e-08
      0.40242076       0.99999813    2.6037523e-08
      0.40570166       0.99999810    2.6880817e-08
      0.40900931       0.99999807    2.7684948e-08
      0.41234392       0.99999803    2.8400971e-08
      0.41570572       0.99999800    2.9271679e-08
      0.41909493       0.99999797    3.0214086e-08
      0.42251177       0.99999794    3.1191959e-08
      0.42595647       0.99999790    3.2195303e-08
      0.42942925       0.99999787    3.3236891e-08
      0.43293034       0.99999783    3.4304998e-08
      0.43645998       0.99999780    3.5414321e-08
      0.44001840       0.99999776    3.6551297e-08
      0.44360583       0.99999772    3.7732840e-08
      0.44722250       0.99999769    3.8943204e-08
      0.45086866       0.99999765    4.0201520e-08
      0.45454455       0.99999761    4.1489860e-08
      0.45825041       0.99999757    4.2829805e-08
      0.46198648       0.99999753    4.4200998e-08
      0.46575301       0.99999749    4.5627905e-08
      0.46955025       0.99999745    4.7087257e-08
      0.47337845       0.99999741    4.8606822e-08
      0.47723786       0.99999736    5.0160188e-08
      0.48112873       0.99999732    5.1777998e-08
      0.48505133       0.99999727    5.3430887e-08
      0.48900590       0.99999723    5.5153397e-08
      0.49299272       0.99999718    5.6912308e-08
      0.49701204       0.99999714    5.8746024e-08
      0.50106413       0.99999709    6.0618100e-08
      0.50514926       0.99999704    6.2569622e-08
      0.50926770       0.99999699    6.4562522e-08
      0.51341971       0.99999694    6.6639056e-08
      0.51760557       0.99999689    6.8760753e-08
      0.52182555       0.99999684    7.0969901e-08
      0.52607995       0.99999679    7.3228262e-08
      0.53036903       0.99999674    7.5578240e-08
      0.53469307       0.99999669    7.7981829e-08
      0.53905238       0.99999663    8.0481805e-08
      0.54344722       0.99999658    8.3040091e-08
      0.54787789       0.99999652    8.5699278e-08
      0.55234469       0.99999646    8.8421839e-08
      0.55684790       0.99999640    9.1250280e-08
      0.56138783       0.99999634    9.4147572e-08
      0.56596477       0.99999628    9.7155806e-08
      0.57057902       0.99999622    1.0023879e-07
      0.57523090       0.99999616    1.0343759e-07
      0.57992070       0.99999610    1.0671750e-07
      0.58464874       0.99999603    1.1011940e-07
      0.58941532       0.99999597    1.1360930e-07
      0.59422077       0.99999590    1.1722660e-07
      0.59906539       0.99999584    1.2093941e-07
      0.60394951       0.99999577    1.2478584e-07
      0.60887346       0.99999570    1.2873548e-07
      0.61383754       0.99999563    1.3282449e-07
      0.61884210       0.99999555    1.3702549e-07
      0.62388746       0.99999548    1.4137274e-07
      0.62897395       0.99999541    1.4584096e-07
      0.63410192       0.99999533    1.5046148e-07
      0.63927169       0.99999526    1.5521329e-07
      0.64448361       0.99999518    1.6012511e-07
      0.64973802       0.99999510    1.6517868e-07
      0.65503527       0.99999502    1.7039904e-07
      0.66037571       0.99999494    1.7577262e-07
      0.66575969       0.99999485    1.8132145e-07
      0.67118757       0.99999477    1.8703484e-07
      0.67665969       0.99999468    1.9292968e-07
      0.68217644       0.99999460    1.9900297e-07
      0.68773815       0.99999451    2.0526729e-07
      0.69334522       0.99999442    2.1172450e-07
      0.69899799       0.99999433    2.1838140e-07
      0.70469686       0.99999423    2.2524480e-07
      0.71044218       0.99999414    2.3231504e-07
      0.71623435       0.99999404    2.3960939e-07
      0.72207374       0.99999395    2.4712107e-07
      0.72796073       0.99999385    2.5487373e-07
      0.73389573       0.99999375    2.6285239e-07
      0.73987911       0.99999365    2.7109068e-07
      0.74591127       0.99999354    2.7956528e-07
      0.75199261       0.99999344    2.8831857e-07
      0.75812354       0.99999333    2.9731769e-07
      0.76430445       0.99999322    3.0661647e-07
      0.77053575       0.99999311    3.1617194e-07
      0.77681785       0.99999300    3.2605062e-07
      0.78315117       0.99999288    3.3619740e-07
      0.78953613       0.99999277    3.4669059e-07
      0.79597314       0.99999265    3.5746189e-07
      0.80246263       0.99999253    3.6860712e-07
      0.80900503       0.99999241    3.8004259e-07
      0.81560077       0.99999229    3.9187683e-07
      0.82225028       0.99999216    4.0401248e-07
      0.82895401       0.99999203    4.1657917e-07
      0.83571239       0.99999191    4.2946045e-07
      0.84252588       0.99999177    4.4280065e-07
      0.84939491       0.99999164    4.5646667e-07
      0.85631994       0.99999151    4.7063007e-07
      0.86330144       0.99999137    4.8513428e-07
      0.87033985       0.99999123    5.0016484e-07
      0.87743565       0.99999109    5.1554821e-07
      0.88458929       0.99999094    5.3150200e-07
      0.89180126       0.99999080    5.4782372e-07
      0.89907203       0.99999065    5.6475104e-07
      0.90640208       0.99999050    5.8205949e-07
      0.91379189       0.99999035    6.0001989e-07
      0.92124195       0.99999019    6.1837729e-07
      0.92875274       0.99999004    6.3742975e-07
      0.93632477       0.99998988    6.5689375e-07
      0.94395854       0.99998971    6.7710474e-07
      0.95165454       0.99998955    6.9774359e-07
      0.95941329       0.99998938    7.1916923e-07
      0.96723529       0.99998921    7.4103806e-07
      0.97512107       0.99998904    7.6376296e-07
      0.98307114       0.99998887    7.8695605e-07
      0.99108602       0.99998869    8.1103611e-07
      0.99916625       0.99998851    8.3562210e-07
       1.0073124       0.99998833    8.6114289e-07
       1.0155249       0.99998815    8.8720995e-07
       1.0238044       0.99998796    9.1423548e-07
       1.0321513       0.99998777    9.4185175e-07
       1.0405664       0.99998758    9.7048410e-07
       1.0490500       0.99998738    9.9975322e-07
       1.0576028       0.99998719    1.0300731e-06
       1.0662253       0.99998699    1.0610790e-06
       1.0749182       0.99998678    1.0931826e-06
       1.0836819       0.99998658    1.1260260e-06
       1.0925170       0.99998637    1.1600126e-06
       1.1014242       0.99998616    1.1947968e-06
       1.1104040       0.99998595    1.2307697e-06
       1.1194570       0.99998573    1.2675984e-06
       1.1285839       0.99998551    1.3056603e-06
       1.1377851       0.99998529    1.3446408e-06
       1.1470613       0.99998507    1.3849070e-06
       1.1564132       0.99998484    1.4261617e-06
       1.1658413       0.99998461    1.4687601e-06
       1.1753463       0.99998438    1.5124157e-06
       1.1849288       0.99998414    1.5574595e-06
       1.1945894       0.99998391    1.6036382e-06
       1.2043288       0.99998367    1.6512665e-06
       1.2141476       0.99998343    1.7001073e-06
       1.2240464       0.99998318    1.7504482e-06
       1.2340259       0.99998294    1.8020906e-06
       1.2440868       0.99998269    1.8552979e-06
       1.2542298       0.99998244    1.9098712e-06
       1.2644554       0.99998219    1.9660327e-06
       1.2747644       0.99998194    2.0236982e-06
       1.2851574       0.99998169    2.0830834e-06
       1.2956351       0.99998144    2.1440351e-06
       1.3061983       0.99998118    2.2067156e-06
       1.3168476       0.99998093    2.2710859e-06
       1.3275838       0.99998068    2.3372761e-06
       1.3384074       0.99998043    2.4052652e-06
       1.3493193       0.99998018    2.4751420e-06
       1.3603202       0.99997994    2.5469017e-06
       1.3714108       0.99997970    2.6205876e-06
       1.3825918       0.99997947    2.6962871e-06
       1.3938639       0.99997924    2.7739940e-06
       1.4052279       0.99997904    2.8538541e-06
       1.4166846       0.99997884    2.9358077e-06
       1.4282347       0.99997869    3.0200357e-06
       1.4398790       0.99997856    3.1064288e-06
       1.4516182       0.99997853    3.1952306e-06
       1.4634531       0.99997858    3.2862680e-06
       1.4753845       0.99998092    3.3800074e-06
       1.4874131       0.99998473    3.4761592e-06
       1.4995399       0.99997878    4.5873392e-07
       1.5117655       0.99997747    4.7341401e-07
       1.5240907       0.99997659    4.8860742e-07
       1.5365165       0.99997592    5.0421668e-07
       1.5490436       0.99997531    5.2036942e-07
       1.5616728       0.99997473    5.3695276e-07
       1.5744049       0.99997418    5.5411387e-07
       1.5872409       0.99997363    5.7172020e-07
       1.6001815       0.99997309    5.8995289e-07
       1.6132277       0.99997255    6.0865161e-07
       1.6263801       0.99997201    6.2802485e-07
       1.6396399       0.99997147    6.4788375e-07
       1.6530077       0.99997092    6.6847031e-07
       1.6664845       0.99997038    6.8956293e-07
       1.6800712       0.99996983    7.1142672e-07
       1.6937687       0.99996927    7.3381415e-07
       1.7075778       0.99996871    7.5704610e-07
       1.7214995       0.99996814    7.8082633e-07
       1.7355347       0.99996756    8.0550510e-07
       1.7496844       0.99996698    8.3075285e-07
       1.7639494       0.99996639    8.5696914e-07
       1.7783307       0.99996579    8.8377866e-07
       1.7928292       0.99996519    9.1161867e-07
       1.8074460       0.99996457    9.4007269e-07
       1.8221819       0.99996395    9.6965017e-07
       1.8370380       0.99996332    9.9986813e-07
       1.8520152       0.99996268    1.0312787e-06
       1.8671145       0.99996202    1.0633530e-06
       1.8823369       0.99996136    1.0967154e-06
       1.8976834       0.99996069    1.1307694e-06
       1.9131550       0.99996001    1.1662057e-06
       1.9287528       0.99995932    1.2023804e-06
       1.9444777       0.99995862    1.2399880e-06
       1.9603309       0.99995790    1.2783973e-06
       1.9763133       0.99995718    1.3183171e-06
       1.9924260       0.99995644    1.3591093e-06
       2.0086700       0.99995569    1.4015040e-06
       2.0250465       0.99995493    1.4448393e-06
       2.0415565       0.99995416    1.4897991e-06
       2.0582011       0.99995338    1.5357891e-06
       2.0749815       0.99995258    1.5835574e-06
       2.0918986       0.99995177    1.6324320e-06
       2.1089536       0.99995095    1.6831084e-06
       2.1261477       0.99995011    1.7349830e-06
       2.1434820       0.99994926    1.7887443e-06
       2.1609576       0.99994840    1.8438089e-06
       2.1785757       0.99994752    1.9008745e-06
       2.1963374       0.99994663    1.9593647e-06
       2.2142439       0.99994572    2.0200052e-06
       2.2322964       0.99994480    2.0821408e-06
       2.2504961       0.99994386    2.1463759e-06
       2.2688442       0.99994291    2.2122824e-06
       2.2873419       0.99994194    2.2805500e-06
       2.3059904       0.99994096    2.3505884e-06
       2.3247909       0.99993996    2.4230024e-06
       2.3437447       0.99993894    2.4973475e-06
       2.3628530       0.99993791    2.5742185e-06
       2.3821171       0.99993686    2.6531630e-06
       2.4015383       0.99993579    2.7347189e-06
       2.4211178       0.99993471    2.8185045e-06
       2.4408569       0.99993361    2.9050097e-06
       2.4607570       0.99993249    2.9939644e-06
       2.4808193       0.99993135    3.0858439e-06
       2.5010452       0.99993019    3.1803296e-06
       2.5214360       0.99992901    3.2778061e-06
       2.5419930       0.99992781    3.3780805e-06
       2.5627176       0.99992659    3.4814559e-06
       2.5836112       0.99992536    3.5878873e-06
       2.6046751       0.99992410    3.6976143e-06
       2.6259108       0.99992282    3.8106259e-06
       2.6473196       0.99992152    3.9270609e-06
       2.6689029       0.99992020    4.0470414e-06
       2.6906622       0.99991886    4.1706060e-06
       2.7125989       0.99991749    4.2979439e-06
       2.7347145       0.99991610    4.4289881e-06
       2.7570104       0.99991469    4.5641881e-06
       2.7794880       0.99991326    4.7033231e-06
       2.8021489       0.99991180    4.8468180e-06
       2.8249946       0.99991031    4.9943386e-06
       2.8480265       0.99990881    5.1466662e-06
       2.8712461       0.99990727    5.3032745e-06
       2.8946551       0.99990572    5.4649762e-06
       2.9182550       0.99990413    5.6310879e-06
       2.9420472       0.99990252    5.8026635e-06
       2.9660335       0.99990089    5.9788403e-06
       2.9902152       0.99989922    6.1610148e-06
       3.0145942       0.99989753    6.3480411e-06
       3.0391719       0.99989581    6.5413924e-06
       3.0639499       0.99989406    6.7397357e-06
       3.0889300       0.99989228    6.9449741e-06
       3.1141138       0.99989047    7.1554554e-06
       3.1395029       0.99988864    7.3732341e-06
       3.1650989       0.99988677    7.5964367e-06
       3.1909037       0.99988487    7.8276096e-06
       3.2169188       0.99988294    8.0644673e-06
       3.2431460       0.99988098    8.3097889e-06
       3.2695871       0.99987898    8.5609968e-06
       3.2962437       0.99987695    8.8213589e-06
       3.3231177       0.99987489    9.0878715e-06
       3.3502107       0.99987280    9.3642359e-06
       3.3775247       0.99987067    9.6470146e-06
       3.4050613       0.99986850    9.9402912e-06
       3.4328224       0.99986630    1.0240216e-05
       3.4608099       0.99986406    1.0551389e-05
       3.4890255       0.99986178    1.0869466e-05
       3.5174712       0.99985947    1.1199780e-05
       3.5461488       0.99985712    1.1537286e-05
       3.5750602       0.99985473    1.1887684e-05
       3.6042074       0.99985230    1.2245535e-05
       3.6335921       0.99984983    1.2617515e-05
       3.6632164       0.99984732    1.2997255e-05
       3.6930823       0.99984477    1.3391894e-05
       3.7231916       0.99984217    1.3794652e-05
       3.7535465       0.99983954    1.4213267e-05
       3.7841488       0.99983686    1.4640604e-05
       3.8150006       0.99983413    1.5084537e-05
       3.8461039       0.99983136    1.5537947e-05
       3.8774608       0.99982855    1.6008890e-05
       3.9090734       0.99982569    1.6490104e-05
       3.9409437       0.99982278    1.6989497e-05
       3.9730738       0.99981982    1.7500001e-05
       4.0054659       0.99981682    1.8029690e-05
       4.0381221       0.99981377    1.8571401e-05
       4.0710445       0.99981066    1.9133004e-05
       4.1042353       0.99980751    1.9707619e-05
       4.1376967       0.99980430    2.0303095e-05
       4.1714310       0.99980105    2.0912657e-05
       4.2054403       0.99979773    2.1544197e-05
       4.2397268       0.99979437    2.2190970e-05
       4.2742929       0.99979095    2.2860692e-05
       4.3091408       0.99978747    2.3546825e-05
       4.3442728       0.99978394    2.4256818e-05
       4.3796912       0.99978035    2.4984613e-05
       4.4153984       0.99977671    2.5737559e-05
       4.4513967       0.99977300    2.6509660e-05
       4.4876885       0.99976923    2.7307872e-05
       4.5242762       0.99976541    2.8126757e-05
       4.5611622       0.99976152    2.8973044e-05
       4.5983489       0.99975757    2.9841605e-05
       4.6358388       0.99975355    3.0738733e-05
       4.6736344       0.99974948    3.1659975e-05
       4.7117381       0.99974533    3.2611250e-05
       4.7501524       0.99974112    3.3588338e-05
       4.7888799       0.99973684    3.4596472e-05
       4.8279232       0.99973250    3.5632822e-05
       4.8672848       0.99972808    3.6702281e-05
       4.9069673       0.99972360    3.7801197e-05
       4.9469733       0.99971904    3.8933295e-05
       4.9873055       0.99971442    4.0098221e-05
       5.0279666       0.99970972    4.1299331e-05
       5.0689591       0.99970494    4.2535315e-05
       5.1102858       0.99970009    4.3808458e-05
       5.1519495       0.99969517    4.5118547e-05
       5.1939528       0.99969016    4.6466868e-05
       5.2362986       0.99968508    4.7855742e-05
       5.2789897       0.99967992    4.9285342e-05
       5.3220288       0.99967468    5.0757978e-05
       5.3654187       0.99966936    5.2272524e-05
       5.4091625       0.99966396    5.3834144e-05
       5.4532629       0.99965847    5.5440230e-05
       5.4977228       0.99965290    5.7095893e-05
       5.5425452       0.99964725    5.8797141e-05
       5.5877330       0.99964151    6.0551199e-05
       5.6332893       0.99963568    6.2352404e-05
       5.6792169       0.99962977    6.4212282e-05
       5.7255190       0.99962376    6.6122569e-05
       5.7721986       0.99961766    6.8093518e-05
       5.8192588       0.99961148    7.0115639e-05
       5.8667027       0.99960520    7.2204350e-05
       5.9145333       0.99959883    7.4347122e-05
       5.9627539       0.99959237    7.6560494e-05
       6.0113677       0.99958581    7.8829807e-05
       6.0603778       0.99957916    8.1174780e-05
       6.1097875       0.99957241    8.3577855e-05
       6.1596000       0.99956556    8.6042725e-05
       6.2098186       0.99955861    8.8561390e-05
       6.2604467       0.99955155    9.1181206e-05
       6.3114875       0.99954439    9.3867909e-05
       6.3629444       0.99953713    9.6648413e-05
       6.4148209       0.99952976    9.9494450e-05
       6.4671203       0.99952229    0.00010244193
       6.5198461       0.99951471    0.00010545784
       6.5730018       0.99950703    0.00010858375
       6.6265908       0.99949924    0.00011178091
       6.6806168       0.99949135    0.00011509476
       6.7350832       0.99948335    0.00011848241
       6.7899937       0.99947525    0.00012199571
       6.8453519       0.99946703    0.00012558584
       6.9011614       0.99945872    0.00012931053
       6.9574259       0.99945028    0.00013311498
       7.0141491       0.99944177    0.00013705627
       7.0713348       0.99943312    0.00014107978
       7.1289867       0.99942441    0.00014524613
       7.1871086       0.99941555    0.00014949741
       7.2457044       0.99940661    0.00015387506
       7.3047779       0.99939753    0.00015834196
       7.3643331       0.99938834    0.00016297914
       7.4243738       0.99937902    0.00016771260
       7.4849040       0.99936961    0.00017262392
       7.5459277       0.99936006    0.00017763945
       7.6074489       0.99935043    0.00018284123
       7.6694717       0.99934066    0.00018815572
       7.7320001       0.99933081    0.00019366316
       7.7950384       0.99932082    0.00019929227
       7.8585906       0.99931076    0.00020512384
       7.9226609       0.99930056    0.00021108666
       7.9872536       0.99929030    0.00021726051
       8.0523729       0.99927990    0.00022357661
       8.1180231       0.99926946    0.00023011598
       8.1842086       0.99925890    0.00023680570
       8.2509337       0.99924832    0.00024371465
       8.3182027       0.99923761    0.00025076248
       8.3860202       0.99922684    0.00025795362
       8.4543906       0.99921594    0.00026530967
       8.5233185       0.99920497    0.00027288361
       8.5928082       0.99919387    0.00028063656
       8.6628646       0.99918268    0.00028862602
       8.7334921       0.99917137    0.00029681272
       8.8046954       0.99916000    0.00030526091
       8.8764792       0.99914852    0.00031392105
       8.9488483       0.99913699    0.00032285381
       9.0218074       0.99912536    0.00033201456
       9.0953613       0.99911370    0.00034146026
       9.1695149       0.99910195    0.00035115183
       9.2442731       0.99909018    0.00036114166
       9.3196408       0.99907835    0.00037139428
       9.3956229       0.99906651    0.00038195645
       9.4722245       0.99905462    0.00039280097
       9.5494506       0.99904274    0.00040396907
       9.6273064       0.99903086    0.00041544012
       9.7057969       0.99901901    0.00042724871
       9.7849273       0.99900718    0.00043935662
       9.8647029       0.99899541    0.00045178346
       9.9451288       0.99898367    0.00046453350
       10.026211       0.99897200    0.00047762161
       10.107953       0.99896039    0.00049105531
       10.190362       0.99894885    0.00050484222
       10.273443       0.99893742    0.00051902107
       10.357202       0.99892609    0.00053358932
       10.441643       0.99891494    0.00054857797
       10.526773       0.99890393    0.00056397248
       10.612597       0.99889318    0.00057981714
       10.699120       0.99888260    0.00059608452
       10.786349       0.99887238    0.00061283334
       10.874289       0.99886238    0.00063002263
       10.962946       0.99885287    0.00064772949
       11.052326       0.99884364    0.00066589709
       11.142434       0.99883506    0.00068461907
       11.233278       0.99882683    0.00070382005
       11.324861       0.99881947    0.00072360962
       11.417192       0.99881254    0.00074389541
       11.510275       0.99880682    0.00076481414
       11.604117       0.99880166    0.00078624985
       11.698725       0.99879814    0.00080835648
       11.794103       0.99879535    0.00083099968
       11.890259       0.99879445    0.00085423891
       11.987199       0.99879432    0.00087798908
       12.084930       0.99880775    0.00090216154
       12.183457       0.99882585    0.00092679585
       12.282788       0.99884116    0.00092577395
       12.382928       0.99885608    0.00091749085
       12.483885       0.99884504    0.00092092659
       12.585665       0.99882770    0.00092713601
       12.688275       0.99881707    0.00094479211
       12.791721       0.99880770    0.00096501373
       12.896010       0.99880425    0.00099126400
       13.001150       0.99880186     0.0010189570
       13.107148       0.99880745     0.0010473022
       13.214009       0.99881437     0.0010762204
       13.321741       0.99882860     0.0011057507
       13.430352       0.99884404     0.0011358663
       13.539849       0.99886920     0.0011675714
       13.650238       0.99889579     0.0011999743
       13.761527       0.99893802     0.0012335166
       13.873723       0.99898212     0.0012677453
       13.986834       0.99905457     0.0013031874
       14.100868       0.99912980     0.0013393440
       14.215831       0.99927554     0.0013767928
       14.331731       0.99945212     0.0014149979
       14.448576        1.0005678     0.0014545205
       14.566374        1.0003880    0.00018586048
       14.685132       0.99987220    0.00019041871
       14.804859       0.99937400    0.00019506759
       14.925561       0.99923295    0.00019985076
       15.047248       0.99909402    0.00020473043
       15.169927       0.99900145    0.00020975076
       15.293606       0.99890960    0.00021487371
       15.418293       0.99883611    0.00022014254
       15.543997       0.99876287    0.00022552442
       15.670725       0.99869900    0.00023108061
       15.798487       0.99863512    0.00023679510
       15.927291       0.99857652    0.00024287155
       16.057145       0.99851779    0.00024914021
       16.188057       0.99846245    0.00025583892
       16.320037       0.99840680    0.00026244094
       16.453092       0.99835297    0.00026835711
       16.587233       0.99829862    0.00027559784
       16.722467       0.99824499    0.00028677846
       16.858803       0.99819189    0.00029831155
       16.996252       0.99814221    0.00031040711
       17.134820       0.99809269    0.00032207150
       17.274519       0.99804500    0.00033229642
       17.415356       0.99799676    0.00034219235
       17.557342       0.99794842    0.00035111361
       17.700486       0.99789943    0.00036024837
       17.844796       0.99785002    0.00036964002
       17.990283       0.99780006    0.00037925889
       18.136956       0.99774984    0.00038914425
       18.284825       0.99769906    0.00039927214
       18.433899       0.99764793    0.00040967724
       18.584189       0.99759623    0.00042034100
       18.735704       0.99754411    0.00043129359
       18.888454       0.99749138    0.00044252183
       19.042450       0.99743813    0.00045405049
       19.197701       0.99738423    0.00046587287
       19.354218       0.99732973    0.00047800751
       19.512011       0.99727451    0.00049045554
       19.671091       0.99721860    0.00050322909
       19.831467       0.99716180    0.00051633642
       19.993151       0.99710410    0.00052978172
       20.156154       0.99704553    0.00054374761
       20.320485       0.99698606    0.00055821607
       20.486156       0.99692582    0.00057376076
       20.653177       0.99686474    0.00059025240
       20.821561       0.99680324    0.00060724071
       20.991317       0.99674114    0.00062469048
       21.162457       0.99667843    0.00064267367
       21.334993       0.99661494    0.00066113775
       21.508935       0.99655077    0.00068017383
       21.684295       0.99648574    0.00069971085
       21.861085       0.99642003    0.00071986154
       22.039316       0.99635340    0.00074053423
       22.219001       0.99628608    0.00076186517
       22.400150       0.99621781    0.00078373982
       22.582776       0.99614882    0.00080631961
       22.766892       0.99607884    0.00082946559
       22.952508       0.99600816    0.00085336841
       23.139637       0.99593648    0.00087786109
       23.328293       0.99586411    0.00090316263
       23.518486       0.99579070    0.00092907681
       23.710230       0.99571666    0.00095586006
       23.903537       0.99564155    0.00098328174
       24.098420       0.99556598     0.0010116339
       24.294892       0.99548934     0.0010406500
       24.492966       0.99541307     0.0010706606
       24.692655       0.99533589     0.0011013611
       24.893972       0.99525808     0.0011310839
       25.096930       0.99517910     0.0011610928
       25.301543       0.99509845     0.0011912897
       25.507824       0.99501640     0.0012220118
       25.715787       0.99493287     0.0012536819
       25.925445       0.99484796     0.0012860087
       26.136813       0.99476179     0.0013193408
       26.349904       0.99467420     0.0013533532
       26.564732       0.99458545     0.0013884366
       26.781312       0.99449525     0.0014242261
       26.999657       0.99440391     0.0014611512
       27.219783       0.99431108     0.0014988082
       27.441703       0.99421712     0.0015376738
       27.665432       0.99412163     0.0015773044
       27.890986       0.99402499     0.0016182038
       28.118378       0.99392680     0.0016599150
       28.347625       0.99382748     0.0017029514
       28.578740       0.99372657     0.0017468554
       28.811740       0.99362450     0.0017921402
       29.046639       0.99352081     0.0018383519
       29.283454       0.99341598     0.0018859991
       29.522199       0.99330951     0.0019346369
       29.762891       0.99320187     0.0019847708
       30.005545       0.99309257     0.0020359615
       30.250177       0.99298213     0.0020887156
       30.496804       0.99287001     0.0021425993
       30.745441       0.99275671     0.0021981069
       30.996106       0.99264174     0.0022548198
       31.248814       0.99252561     0.0023132248
       31.503583       0.99240781     0.0023729150
       31.760428       0.99228892     0.0024343673
       32.019368       0.99216838     0.0024971920
       32.280419       0.99204683     0.0025618580
       32.543598       0.99192380     0.0026279864
       32.808923       0.99180020     0.0026960259
       33.076411       0.99167511     0.0027653869
       33.346079       0.99154929     0.0028360970
       33.617947       0.99142181     0.0029075560
       33.892031       0.99129307     0.0029789383
       34.168349       0.99116215     0.0030519336
       34.446920       0.99102883     0.0031268480
       34.727763       0.99089359     0.0032034764
       35.010895       0.99075655     0.0032821015
       35.296335       0.99061762     0.0033625445
       35.584103       0.99047695     0.0034450624
       35.874217       0.99033445     0.0035295089
       36.166696       0.99019028     0.0036161113
       36.461559       0.99004429     0.0037047633
       36.758827       0.98989661     0.0037956589
       37.058518       0.98974717     0.0038887258
       37.360653       0.98959606     0.0039841189
       37.665250       0.98944324     0.0040818143
       37.972331       0.98928877     0.0041819260
       38.281916       0.98913265     0.0042844864
       38.594025       0.98897488     0.0043895655
       38.908678       0.98881556     0.0044972367
       39.225897       0.98865463     0.0046075162
       39.545702       0.98849229     0.0047205444
       39.868114       0.98832838     0.0048362809
       40.193155       0.98816325     0.0049549326
       40.520846       0.98799661     0.0050763985
       40.851209       0.98782901     0.0052009614
       41.184265       0.98765998     0.0053284525
       41.520036       0.98749047     0.0054592149
       41.858545       0.98731975     0.0055930121
       42.199813       0.98714940     0.0057302836
       42.543864       0.98697823     0.0058707081
       42.890720       0.98681026     0.0060148140
       43.240404       0.98664286     0.0061621918
       43.592939       0.98647539     0.0063030431
       43.948348       0.98630667     0.0064421729
       44.306655       0.98613500     0.0065814836
       44.667883       0.98596069     0.0067223557
       45.032056       0.98577989     0.0068664439
       45.399198       0.98559503     0.0070134073
       45.769333       0.98540792     0.0071637486
       46.142486       0.98521828     0.0073170669
       46.518681       0.98502631     0.0074739292
       46.897943       0.98483172     0.0076338723
       47.280298       0.98463516     0.0077975323
       47.665769       0.98443601     0.0079643815
       48.054384       0.98423505     0.0081351469
       48.446167       0.98403145     0.0083092185
       48.841143       0.98382631     0.0084873771
       49.239341       0.98361851     0.0086689555
       49.640784       0.98340940     0.0088548552
       50.045501       0.98319759     0.0090443008
       50.453517       0.98298471     0.0092382620
       50.864859       0.98276907     0.0094358891
       51.279556       0.98255267     0.0096382519
       51.697633       0.98233344     0.0098444103
       52.119119       0.98211377      0.010055557
       52.544041       0.98189121      0.010270635
       52.972427       0.98166856      0.010490936
       53.404306       0.98144295      0.010715305
       53.839707       0.98121781      0.010945170
       54.278657       0.98098973      0.011179278
       54.721185       0.98076251      0.011419075
       55.167322       0.98053246      0.011663325
       55.617096       0.98030370      0.011913476
       56.070536       0.98007231      0.012168311
       56.527674       0.97984306      0.012429292
       56.988539       0.97961145      0.012695200
       57.453161       0.97938291      0.012967459
       57.921571       0.97915249      0.013244895
       58.393800       0.97892687      0.013528903
       58.869879       0.97870039      0.013818360
       59.349839       0.97848294      0.014114676
       59.833713       0.97826652      0.014415401
       60.321531       0.97806579      0.014716407
       60.813327       0.97786330      0.015014873
       61.309132       0.97765990      0.015283833
       61.808979       0.97745193      0.015557480
       62.312902       0.97723227      0.015836150
       62.820933       0.97700822      0.016119683
       63.333106       0.97677514      0.016408403
       63.849455       0.97653920      0.016702181
       64.370013       0.97629999      0.017001345
       64.894816       0.97605816      0.017305764
       65.423897       0.97581387      0.017615758
       65.957292       0.97556713      0.017931174
       66.495035       0.97531838      0.018252268
       67.037163       0.97506753      0.018579058
       67.583710       0.97481534      0.018911863
       68.134713       0.97456132      0.019250515
       68.690209       0.97430630      0.019595243
       69.250234       0.97404983      0.019946114
       69.814824       0.97379283      0.020303400
       70.384018       0.97353497      0.020666995
       70.957852       0.97327723      0.021037109
       71.536364       0.97301907      0.021413799
       72.119593       0.97276133      0.021797268
       72.707578       0.97250425      0.022187581
       73.300355       0.97224863      0.022584920
       73.897966       0.97199477      0.022989365
       74.500449       0.97174324      0.023401073
       75.107844       0.97149518      0.023820144
       75.720191       0.97125079      0.024246709
       76.337530       0.97101272      0.024680939
       76.959903       0.97078044      0.025122934
       77.587350       0.97058679      0.025572886
       78.219912       0.97042604      0.026030866
       78.857631       0.97026732      0.026429473
       79.500550       0.97011020      0.026783658
       80.148710       0.96991032      0.027134512
       80.802155       0.96968021      0.027484591
       81.460927       0.96943615      0.027839155
       82.125070       0.96918249      0.028198456
       82.794628       0.96891615      0.028562227
       83.469644       0.96864153      0.028930806
       84.150164       0.96835503      0.029303930
       84.836232       0.96806102      0.029682006
       85.527894       0.96775497      0.030064859
       86.225195       0.96744162      0.030452878
       86.928180       0.96711470      0.030845688
       87.636897       0.96678004      0.031243783
       88.351392       0.96642900      0.031646793
       89.071713       0.96606935      0.032055251
       89.797906       0.96568605      0.032468679
       90.530020       0.96529184      0.032887712
       91.268102       0.96484765      0.033320191
       92.012202       0.96438500      0.033760930
       92.762369       0.96390818      0.034316523
       93.518651       0.96342267      0.034906582
       94.281100       0.96298997      0.035506933
       95.049764       0.96256337      0.036117430
       95.824696       0.96215828      0.036738590
       96.605945       0.96175270      0.037370235
       97.393564       0.96135908      0.038013001
       98.187605       0.96096315      0.038666615
       98.988119       0.96057888      0.039331644
       99.795159       0.96019205      0.040007869
       100.60878       0.95981914      0.040695974
       101.42903       0.95944375      0.041395655
       102.25597       0.95909257      0.042100731
       103.08966       0.95873949      0.042817282
       103.93014       0.95838470      0.043522367
       104.77747       0.95802677      0.044238552
       105.63171       0.95767023      0.044966553
       106.49292       0.95731074      0.045706504
       107.36114       0.95695527      0.046458658
       108.23645       0.95659735      0.047223163
       109.11889       0.95624667      0.048000299
       110.00852       0.95589408      0.048790195
       110.90541       0.95554964      0.049593093
       111.80961       0.95520502      0.050409179
       112.72119       0.95487946      0.051238745
       113.64019       0.95455408      0.052080990
       114.56669       0.95424236      0.052930373
       115.50074       0.95393044      0.053788676
       116.44241       0.95362499      0.054632226
       117.39175       0.95331760      0.055489186
       118.34883       0.95300591      0.056359400
       119.31372       0.95269377      0.057243443
       120.28647       0.95238427      0.058141201
       121.26716       0.95207531      0.059053212
       122.25584       0.95177158      0.059979385
       123.25258       0.95146914      0.060920227
       124.25744       0.95117299      0.061875636
       125.27050       0.95087883      0.062846178
       126.29182       0.95059154      0.063831809
       127.32147       0.95030674      0.064833037
       128.35951       0.95002882      0.065849845
       129.40601       0.94975364      0.066882728
       130.46104       0.94948473      0.067931700
       131.52468       0.94920801      0.068997239
       132.59699       0.94891571      0.070079391
       133.67804       0.94861934      0.071213678
       134.76790       0.94831601      0.072427863
       135.86665       0.94805207      0.073680541
       136.97436       0.94785222      0.074983312
       138.09110       0.94769242      0.076308944
       139.21694       0.94759048      0.077658152
       140.35196       0.94752524      0.079031082
       141.49624       0.94750750      0.080428384
       142.64984       0.94753850      0.081850313
       143.81285       0.94762732      0.083297460
       144.98535       0.94778542      0.084770145
       146.16740       0.94801921      0.086268883
       147.35909       0.94838809      0.087756739
       148.56049       0.94889273      0.089234027
       149.77169       0.94940241      0.090571014
       150.99277       0.94991878      0.091782384
       152.22379       0.95042794      0.093009741
       153.46486       0.95093479      0.094253634
       154.71604       0.95148738      0.095513997
       155.97743       0.95207957      0.096791512
       157.24910       0.95276704      0.098085814
       158.53114       0.95352691      0.099397759
       159.82362       0.95441318       0.10066704
       161.12665       0.95538810       0.10191723
       162.44030       0.95643429       0.10299434
       163.76466       0.95753438       0.10398169
       165.09982       0.95865248       0.10497819
       166.44586       0.95979652       0.10598463
       167.80288       0.96108016       0.10700027
       169.17096       0.96244654       0.10802606
       170.55019       0.96433521       0.10906127
       171.94067       0.96646149       0.11010688
       173.34249       0.96872057       0.11038703
       174.75573       0.97106540       0.11039507
       176.18050       0.97376922       0.11031089
       177.61688       0.97663179       0.11018679
       179.06498       0.98038194       0.10985136
       180.52487       0.98443754       0.10944299
       181.99668       0.98731531       0.10476754
       183.48048       0.98998234      0.099023532
       184.97638       0.99015998      0.093867293
       186.48447       0.98986643      0.088709992
       188.00486       0.98784538      0.084100538
       189.53765       0.98551219      0.079471299
       191.08293       0.98150077      0.076487807
       192.64081       0.97719482      0.073636372
       194.21139       0.97374357      0.073214013
       195.79478       0.97029903      0.073002843
       197.39107       0.96746074      0.072805287
       199.00038       0.96460077      0.072594942
       200.62281       0.96182278      0.072398649
       202.25847       0.95898688      0.072188916
       203.90747       0.95614650      0.072709499
       205.56990       0.95325189      0.073244973
       207.24590       0.95103411      0.074025445
       208.93555       0.94878075      0.074815203
       210.63898       0.94681639      0.075612392
       212.35630       0.94482618      0.076419015
       214.08762       0.94303798      0.077233398
       215.83306       0.94122733      0.078041577
       217.59272       0.93953384      0.078684198
       219.36674       0.93780701      0.079330927
       221.15521       0.93604887      0.079972704
       222.95827       0.93426198      0.080619643
       224.77603       0.93248011      0.081271876
       226.60860       0.93066943      0.081929341
       228.45612       0.92885680      0.082592098
       230.31870       0.92701348      0.083260202
       232.19647       0.92515521      0.083933846
       234.08954       0.92326335      0.084615371
       235.99805       0.92134387      0.085312142
       237.92212       0.91939312      0.086022934
       239.86188       0.91742407      0.086767894
       241.81745       0.91542272      0.087519516
       243.78896       0.91339896      0.088277596
       245.77655       0.91133814      0.089042376
       247.78034       0.90924167      0.089813536
       249.80047       0.90709784      0.090591554
       251.83707       0.90489520      0.091376276
       253.89028       0.90262133      0.092167897
       255.96022       0.90024201      0.092966237
       258.04704       0.89779964      0.093864509
       260.15087       0.89527715      0.094947815
       262.27186       0.89274649      0.096077728
       264.41013       0.89023610      0.097278248
       266.56584       0.88773428      0.098494137
       268.73913       0.88527183      0.099724940
       270.93013       0.88277584       0.10097142
       273.13900       0.88025049       0.10223325
       275.36588       0.87768542       0.10351099
       277.61091       0.87508172       0.10480441
       279.87424       0.87242545       0.10611421
       282.15603       0.86971496       0.10744041
       284.45642       0.86692119       0.10878325
       286.77557       0.86404100       0.11014286
       289.11362       0.86105454       0.11159533
       291.47073       0.85796236       0.11313887
       293.84707       0.85485600       0.11486250
       296.24277       0.85172949       0.11674852
       298.65801       0.84863589       0.11866540
       301.09294       0.84555662       0.12061366
       303.54772       0.84247716       0.12259392
       306.02252       0.83938182       0.12460669
       308.51749       0.83625552       0.12665251
       311.03281       0.83308930       0.12873191
       313.56863       0.82983990       0.13084545
       316.12512       0.82651721       0.13299369
       318.70246       0.82306740       0.13519245
       321.30081       0.81952059       0.13743533
       323.92034       0.81597669       0.14001501
       326.56123       0.81240088       0.14277942
       329.22366       0.80891878       0.14560086
       331.90778       0.80544170       0.14847575
       334.61380       0.80200337       0.15140991
       337.34187       0.79854310       0.15439924
       340.09219       0.79510240       0.15745054
       342.86492       0.79162963       0.16055897
       345.66027       0.78816511       0.16373227
       348.47840       0.78466224       0.16696472
       351.31951       0.78114326       0.17026448
       354.18379       0.77757693       0.17362531
       357.07142       0.77401128       0.17712658
       359.98258       0.77040023       0.18070746
       362.91749       0.76683438       0.18442466
       365.87632       0.76322989       0.18822155
       368.85927       0.75969550       0.19210398
       371.86655       0.75612422       0.19605895
       374.89834       0.75260885       0.20010310
       377.95485       0.74905226       0.20422225
       381.03628       0.74555034       0.20843523
       384.14283       0.74200505       0.21272588
       387.27471       0.73851948       0.21711446
       390.43212       0.73498909       0.22158342
       393.61528       0.73152525       0.22615472
       396.82438       0.72801519       0.23080916
       400.05966       0.72457573       0.23557164
       403.32130       0.72109037       0.24042119
       406.60954       0.71763805       0.24540582
       409.92459       0.71414598       0.25048714
       413.26667       0.71077316       0.25580241
