;  Optical constants for crystalline Si
;  
;  Concatenation of:
;
;  Si_llnl_cxro + Si_palik
;
;    Lambda (A)            n            k
;-----------------------------------------
      0.12398000       0.99999995    5.6886657e-12
      0.12499080       0.99999995    5.8869953e-12
      0.12600983       0.99999995    6.0924737e-12
      0.12703718       0.99999995    6.3052263e-12
      0.12807290       0.99999995    6.5246936e-12
      0.12911707       0.99999995    6.7523669e-12
      0.13016975       0.99999995    6.9870917e-12
      0.13123101       0.99999995    7.2303850e-12
      0.13230092       0.99999995    7.4821575e-12
      0.13337956       0.99999994    7.7423847e-12
      0.13446699       0.99999994    8.0137516e-12
      0.13556329       0.99999994    8.2912375e-12
      0.13666852       0.99999994    8.5819229e-12
      0.13778277       0.99999994    8.8788071e-12
      0.13890610       0.99999994    9.1887500e-12
      0.14003858       0.99999994    9.5090412e-12
      0.14118030       0.99999994    9.8401942e-12
      0.14233133       0.99999994    1.0184318e-11
      0.14349175       0.99999994    1.0537031e-11
      0.14466162       0.99999993    1.0906233e-11
      0.14584103       0.99999993    1.1283103e-11
      0.14703006       0.99999993    1.1677256e-11
      0.14822878       0.99999993    1.2084036e-11
      0.14943728       0.99999993    1.2503752e-11
      0.15065563       0.99999993    1.2942665e-11
      0.15188391       0.99999993    1.3390683e-11
      0.15312220       0.99999993    1.3859699e-11
      0.15437059       0.99999993    1.4341252e-11
      0.15562916       0.99999992    1.4838519e-11
      0.15689799       0.99999992    1.5354858e-11
      0.15817716       0.99999992    1.5890793e-11
      0.15946677       0.99999992    1.6446371e-11
      0.16076688       0.99999992    1.7013427e-11
      0.16207760       0.99999992    1.7608646e-11
      0.16339900       0.99999992    1.8218617e-11
      0.16473118       0.99999991    1.8852957e-11
      0.16607422       0.99999991    1.9509898e-11
      0.16742821       0.99999991    2.0188197e-11
      0.16879323       0.99999991    2.0890060e-11
      0.17016939       0.99999991    2.1617159e-11
      0.17155676       0.99999991    2.2371068e-11
      0.17295545       0.99999991    2.3150833e-11
      0.17436554       0.99999990    2.3954437e-11
      0.17578712       0.99999990    2.4790931e-11
      0.17722030       0.99999990    2.5649810e-11
      0.17866516       0.99999990    2.6544934e-11
      0.18012180       0.99999990    2.7465482e-11
      0.18159031       0.99999990    2.8421010e-11
      0.18307080       0.99999989    2.9406273e-11
      0.18456336       0.99999989    3.0427835e-11
      0.18606809       0.99999989    3.1486912e-11
      0.18758508       0.99999989    3.2580897e-11
      0.18911444       0.99999989    3.3714507e-11
      0.19065628       0.99999989    3.4881199e-11
      0.19221068       0.99999988    3.6100224e-11
      0.19377775       0.99999988    3.7347320e-11
      0.19535760       0.99999988    3.8652798e-11
      0.19695034       0.99999988    3.9988382e-11
      0.19855605       0.99999988    4.1379639e-11
      0.20017486       0.99999987    4.2820770e-11
      0.20180687       0.99999987    4.4303912e-11
      0.20345218       0.99999987    4.5844954e-11
      0.20511091       0.99999987    4.7441796e-11
      0.20678315       0.99999987    4.9082912e-11
      0.20846904       0.99999986    5.0789029e-11
      0.21016867       0.99999986    5.2561860e-11
      0.21188215       0.99999986    5.4371550e-11
      0.21360961       0.99999986    5.6258302e-11
      0.21535114       0.99999985    5.8210360e-11
      0.21710688       0.99999985    6.0237475e-11
      0.21887693       0.99999985    6.2325475e-11
      0.22066141       0.99999985    6.4487582e-11
      0.22246045       0.99999984    6.6719228e-11
      0.22427414       0.99999984    6.9026255e-11
      0.22610263       0.99999984    7.1551114e-11
      0.22794602       0.99999984    7.4034717e-11
      0.22980444       0.99999983    7.6598101e-11
      0.23167802       0.99999983    7.9248754e-11
      0.23356687       0.99999983    8.1995396e-11
      0.23547111       0.99999983    8.4836391e-11
      0.23739089       0.99999982    8.7774812e-11
      0.23932631       0.99999982    9.0813815e-11
      0.24127752       0.99999982    9.3956287e-11
      0.24324463       0.99999981    9.7205700e-11
      0.24522778       0.99999981    1.0057307e-10
      0.24722710       0.99999981    1.0405934e-10
      0.24924272       0.99999981    1.0765883e-10
      0.25127477       0.99999980    1.1137688e-10
      0.25332339       0.99999980    1.1522002e-10
      0.25538871       0.99999980    1.1919943e-10
      0.25747087       0.99999979    1.2332352e-10
      0.25957000       0.99999979    1.2758602e-10
      0.26168625       0.99999979    1.3199088e-10
      0.26381975       0.99999978    1.3654185e-10
      0.26597065       0.99999978    1.4126843e-10
      0.26813908       0.99999977    1.4615357e-10
      0.27032520       0.99999977    1.5120727e-10
      0.27252913       0.99999977    1.5643653e-10
      0.27475103       0.99999976    1.6184158e-10
      0.27699105       0.99999976    1.6743358e-10
      0.27924933       0.99999976    1.7318564e-10
      0.28152603       0.99999975    1.7917004e-10
      0.28382128       0.99999975    1.8533718e-10
      0.28613525       0.99999974    1.9175178e-10
      0.28846808       0.99999974    1.9831037e-10
      0.29081993       0.99999973    2.0518710e-10
      0.29319096       0.99999973    2.1221234e-10
      0.29558132       0.99999973    2.1953216e-10
      0.29799117       0.99999972    2.2710554e-10
      0.30042066       0.99999972    2.3493780e-10
      0.30286996       0.99999971    2.4302752e-10
      0.30533923       0.99999971    2.5141338e-10
      0.30782863       0.99999970    2.6007694e-10
      0.31033833       0.99999970    2.6903247e-10
      0.31286848       0.99999969    2.7829842e-10
      0.31541927       0.99999969    2.8787667e-10
      0.31799085       0.99999968    2.9774117e-10
      0.32058340       0.99999968    3.0801635e-10
      0.32319709       0.99999967    3.1860536e-10
      0.32583208       0.99999967    3.2954092e-10
      0.32848856       0.99999966    3.4088956e-10
      0.33116670       0.99999966    3.5256249e-10
      0.33386667       0.99999965    3.6468455e-10
      0.33658865       0.99999964    3.7721021e-10
      0.33933282       0.99999964    3.9012077e-10
      0.34209937       0.99999963    4.0355198e-10
      0.34488847       0.99999963    4.1736797e-10
      0.34770032       0.99999962    4.3169030e-10
      0.35053508       0.99999961    4.4651793e-10
      0.35339296       0.99999961    4.6186272e-10
      0.35627414       0.99999960    4.7768865e-10
      0.35917881       0.99999960    4.9401781e-10
      0.36210716       0.99999959    5.1098294e-10
      0.36505938       0.99999958    5.2846545e-10
      0.36803568       0.99999957    5.4658499e-10
      0.37103624       0.99999957    5.6526357e-10
      0.37406126       0.99999956    5.8468202e-10
      0.37711095       0.99999955    6.0468956e-10
      0.38018549       0.99999955    6.2530808e-10
      0.38328511       0.99999954    6.4670607e-10
      0.38641000       0.99999953    6.6888093e-10
      0.38956036       0.99999952    6.9171937e-10
      0.39273641       0.99999952    7.1536787e-10
      0.39593835       0.99999951    7.3982851e-10
      0.39916640       0.99999950    7.6516992e-10
      0.40242076       0.99999949    7.9124284e-10
      0.40570166       0.99999948    8.1840029e-10
      0.40900931       0.99999947    8.4429647e-10
      0.41234392       0.99999947    8.6734561e-10
      0.41570572       0.99999946    8.9536391e-10
      0.41909493       0.99999945    9.2568993e-10
      0.42251177       0.99999944    9.5723489e-10
      0.42595647       0.99999943    9.8963189e-10
      0.42942925       0.99999942    1.0233469e-09
      0.43293034       0.99999941    1.0579496e-09
      0.43645998       0.99999940    1.0939818e-09
      0.44001840       0.99999939    1.1309418e-09
      0.44360583       0.99999938    1.1694546e-09
      0.44722250       0.99999937    1.2089357e-09
      0.45086866       0.99999936    1.2500920e-09
      0.45454455       0.99999935    1.2922577e-09
      0.45825041       0.99999934    1.3362394e-09
      0.46198648       0.99999933    1.3812739e-09
      0.46575301       0.99999932    1.4282767e-09
      0.46955025       0.99999931    1.4763736e-09
      0.47337845       0.99999930    1.5266074e-09
      0.47723786       0.99999928    1.5779821e-09
      0.48112873       0.99999927    1.6316568e-09
      0.48505133       0.99999926    1.6865167e-09
      0.48900590       0.99999925    1.7438701e-09
      0.49299272       0.99999924    1.8024541e-09
      0.49701204       0.99999922    1.8637335e-09
      0.50106413       0.99999921    1.9263128e-09
      0.50514926       0.99999920    1.9917709e-09
      0.50926770       0.99999919    2.0586390e-09
      0.51341971       0.99999917    2.1285394e-09
      0.51760557       0.99999916    2.1999903e-09
      0.52182555       0.99999914    2.2746342e-09
      0.52607995       0.99999913    2.3509788e-09
      0.53036903       0.99999912    2.4306705e-09
      0.53469307       0.99999910    2.5122287e-09
      0.53905238       0.99999909    2.5973285e-09
      0.54344722       0.99999907    2.6844722e-09
      0.54787789       0.99999906    2.7753365e-09
      0.55234469       0.99999904    2.8684371e-09
      0.55684790       0.99999903    2.9654525e-09
      0.56138783       0.99999901    3.0649140e-09
      0.56596477       0.99999899    3.1684925e-09
      0.57057902       0.99999898    3.2747468e-09
      0.57523090       0.99999896    3.3853233e-09
      0.57992070       0.99999894    3.4988211e-09
      0.58464874       0.99999893    3.6168797e-09
      0.58941532       0.99999891    3.7381313e-09
      0.59422077       0.99999889    3.8641680e-09
      0.59906539       0.99999887    3.9936945e-09
      0.60394951       0.99999885    4.1282591e-09
      0.60887346       0.99999883    4.2666210e-09
      0.61383754       0.99999881    4.4102598e-09
      0.61884210       0.99999880    4.5580620e-09
      0.62388746       0.99999878    4.7114522e-09
      0.62897395       0.99999876    4.8693004e-09
      0.63410192       0.99999873    5.0328512e-09
      0.63927169       0.99999871    5.2012936e-09
      0.64448361       0.99999869    5.3757948e-09
      0.64973802       0.99999867    5.5556087e-09
      0.65503527       0.99999865    5.7417577e-09
      0.66037571       0.99999863    5.9336799e-09
      0.66575969       0.99999860    6.1322729e-09
      0.67118757       0.99999858    6.3371225e-09
      0.67665969       0.99999856    6.5489254e-09
      0.68217644       0.99999853    6.7675379e-09
      0.68773815       0.99999851    6.9934740e-09
      0.69334522       0.99999849    7.2268114e-09
      0.69899799       0.99999846    7.4678225e-09
      0.70469686       0.99999844    7.7168261e-09
      0.71044218       0.99999841    7.9738223e-09
      0.71623435       0.99999838    8.2395481e-09
      0.72207374       0.99999836    8.5136988e-09
      0.72796073       0.99999833    8.7972938e-09
      0.73389573       0.99999830    9.0896738e-09
      0.73987911       0.99999828    9.3922780e-09
      0.74591127       0.99999825    9.7040825e-09
      0.75199261       0.99999822    1.0026986e-08
      0.75812354       0.99999819    1.0359524e-08
      0.76430445       0.99999816    1.0704027e-08
      0.77053575       0.99999813    1.1058589e-08
      0.77681785       0.99999810    1.1426166e-08
      0.78315117       0.99999807    1.1804292e-08
      0.78953613       0.99999803    1.2196521e-08
      0.79597314       0.99999800    1.2599752e-08
      0.80246263       0.99999797    1.3018236e-08
      0.80900503       0.99999794    1.3448199e-08
      0.81560077       0.99999790    1.3894634e-08
      0.82225028       0.99999787    1.4353056e-08
      0.82895401       0.99999783    1.4829338e-08
      0.83571239       0.99999780    1.5318137e-08
      0.84252588       0.99999776    1.5826136e-08
      0.84939491       0.99999772    1.6347142e-08
      0.85631994       0.99999769    1.6889166e-08
      0.86330144       0.99999765    1.7444846e-08
      0.87033985       0.99999761    1.8022946e-08
      0.87743565       0.99999757    1.8615209e-08
      0.88458929       0.99999753    1.9231991e-08
      0.89180126       0.99999749    1.9863585e-08
      0.89907203       0.99999745    2.0521328e-08
      0.90640208       0.99999740    2.1194423e-08
      0.91379189       0.99999736    2.1896031e-08
      0.92124195       0.99999732    2.2613681e-08
      0.92875274       0.99999727    2.3361923e-08
      0.93632477       0.99999723    2.4126809e-08
      0.94395854       0.99999718    2.4925062e-08
      0.95165454       0.99999714    2.5740662e-08
      0.95941329       0.99999709    2.6591702e-08
      0.96723529       0.99999704    2.7460724e-08
      0.97512107       0.99999699    2.8368475e-08
      0.98307114       0.99999694    2.9295331e-08
      0.99108602       0.99999689    3.0262843e-08
      0.99916625       0.99999684    3.1251229e-08
       1.0073124       0.99999679    3.2282637e-08
       1.0155249       0.99999673    3.3336866e-08
       1.0238044       0.99999668    3.4435744e-08
       1.0321513       0.99999663    3.5559600e-08
       1.0405664       0.99999657    3.6731064e-08
       1.0490500       0.99999651    3.7929778e-08
       1.0576028       0.99999645    3.9178060e-08
       1.0662253       0.99999640    4.0456062e-08
       1.0749182       0.99999634    4.1786256e-08
       1.0836819       0.99999627    4.3148947e-08
       1.0925170       0.99999621    4.4566615e-08
       1.1014242       0.99999615    4.6019792e-08
       1.1104040       0.99999609    4.7530600e-08
       1.1194570       0.99999602    4.9079963e-08
       1.1285839       0.99999595    5.0689416e-08
       1.1377851       0.99999589    5.2340922e-08
       1.1470613       0.99999582    5.4055963e-08
       1.1564132       0.99999575    5.5816775e-08
       1.1658413       0.99999568    5.7644213e-08
       1.1753463       0.99999560    5.9521355e-08
       1.1849288       0.99999553    6.1468107e-08
       1.1945894       0.99999545    6.3469063e-08
       1.2043288       0.99999538    6.5543494e-08
       1.2141476       0.99999530    6.7676657e-08
       1.2240464       0.99999522    6.9886444e-08
       1.2340259       0.99999514    7.2160278e-08
       1.2440868       0.99999505    7.4514822e-08
       1.2542298       0.99999496    7.6938680e-08
       1.2644554       0.99999487    7.9446998e-08
       1.2747644       0.99999478    8.2030438e-08
       1.2851574       0.99999470    8.4702177e-08
       1.2956351       0.99999462    8.7455757e-08
       1.3061983       0.99999454    9.0302302e-08
       1.3168476       0.99999445    9.3237004e-08
       1.3275838       0.99999436    9.6268305e-08
       1.3384074       0.99999427    9.9395911e-08
       1.3493193       0.99999418    1.0262562e-07
       1.3603202       0.99999408    1.0595885e-07
       1.3714108       0.99999399    1.0939817e-07
       1.3825918       0.99999389    1.1295000e-07
       1.3938639       0.99999379    1.1661311e-07
       1.4052279       0.99999368    1.2039795e-07
       1.4166846       0.99999358    1.2429915e-07
       1.4282347       0.99999348    1.2833246e-07
       1.4398790       0.99999337    1.3248796e-07
       1.4516182       0.99999326    1.3678624e-07
       1.4634531       0.99999315    1.4121184e-07
       1.4753845       0.99999304    1.4579049e-07
       1.4874131       0.99999292    1.5050139e-07
       1.4995399       0.99999280    1.5537964e-07
       1.5117655       0.99999268    1.6039702e-07
       1.5240907       0.99999256    1.6559541e-07
       1.5365165       0.99999244    1.7093895e-07
       1.5490436       0.99999232    1.7647640e-07
       1.5616728       0.99999219    1.8216511e-07
       1.5744049       0.99999206    1.8806475e-07
       1.5872409       0.99999193    1.9412268e-07
       1.6001815       0.99999180    2.0040643e-07
       1.6132277       0.99999166    2.0685467e-07
       1.6263801       0.99999152    2.1354789e-07
       1.6396399       0.99999138    2.2041303e-07
       1.6530077       0.99999124    2.2754317e-07
       1.6664845       0.99999110    2.3485257e-07
       1.6800712       0.99999095    2.4244776e-07
       1.6937687       0.99999080    2.5022961e-07
       1.7075778       0.99999065    2.5831791e-07
       1.7214995       0.99999049    2.6660017e-07
       1.7355347       0.99999034    2.7521520e-07
       1.7496844       0.99999018    2.8403271e-07
       1.7639494       0.99999001    2.9320668e-07
       1.7783307       0.99998985    3.0259139e-07
       1.7928292       0.99998968    3.1235968e-07
       1.8074460       0.99998951    3.2234660e-07
       1.8221819       0.99998934    3.3274938e-07
       1.8370380       0.99998916    3.4338000e-07
       1.8520152       0.99998898    3.5445918e-07
       1.8671145       0.99998880    3.6577497e-07
       1.8823369       0.99998861    3.7757219e-07
       1.8976834       0.99998843    3.8961585e-07
       1.9131550       0.99998823    4.0215874e-07
       1.9287528       0.99998804    4.1496617e-07
       1.9444777       0.99998784    4.2834142e-07
       1.9603309       0.99998764    4.4200396e-07
       1.9763133       0.99998744    4.5621344e-07
       1.9924260       0.99998723    4.7073748e-07
       2.0086700       0.99998702    4.8586145e-07
       2.0250465       0.99998680    5.0132735e-07
       2.0415565       0.99998659    5.1741547e-07
       2.0582011       0.99998636    5.3387773e-07
       2.0749815       0.99998614    5.5100263e-07
       2.0918986       0.99998591    5.6853095e-07
       2.1089536       0.99998568    5.8673400e-07
       2.1261477       0.99998544    6.0537806e-07
       2.1434820       0.99998520    6.2474248e-07
       2.1609576       0.99998495    6.4458746e-07
       2.1785757       0.99998471    6.6519108e-07
       2.1963374       0.99998445    6.8631623e-07
       2.2142439       0.99998420    7.0823636e-07
       2.2322964       0.99998394    7.3071749e-07
       2.2504961       0.99998367    7.5401595e-07
       2.2688442       0.99998340    7.7792850e-07
       2.2873419       0.99998313    8.0271353e-07
       2.3059904       0.99998285    8.2816256e-07
       2.3247909       0.99998256    8.5452134e-07
       2.3437447       0.99998228    8.8159418e-07
       2.3628530       0.99998198    9.0960674e-07
       2.3821171       0.99998169    9.3840372e-07
       2.4015383       0.99998138    9.6820594e-07
       2.4211178       0.99998108    9.9885289e-07
       2.4408569       0.99998077    1.0305441e-06
       2.4607570       0.99998045    1.0631366e-06
       2.4808193       0.99998013    1.0968043e-06
       2.5010452       0.99997980    1.1314628e-06
       2.5214360       0.99997947    1.1672680e-06
       2.5419930       0.99997913    1.2041325e-06
       2.5627176       0.99997878    1.2421764e-06
       2.5836112       0.99997844    1.2813711e-06
       2.6046751       0.99997808    1.3218092e-06
       2.6259108       0.99997772    1.3634948e-06
       2.6473196       0.99997735    1.4064824e-06
       2.6689029       0.99997698    1.4508059e-06
       2.6906622       0.99997660    1.4964796e-06
       2.7125989       0.99997622    1.5436053e-06
       2.7347145       0.99997583    1.5921538e-06
       2.7570104       0.99997543    1.6422503e-06
       2.7794880       0.99997503    1.6938126e-06
       2.8021489       0.99997462    1.7470576e-06
       2.8249946       0.99997420    1.8018467e-06
       2.8480265       0.99997378    1.8584461e-06
       2.8712461       0.99997335    1.9166549e-06
       2.8946551       0.99997292    1.9768131e-06
       2.9182550       0.99997247    2.0386482e-06
       2.9420472       0.99997202    2.1025636e-06
       2.9660335       0.99997156    2.1682215e-06
       2.9902152       0.99997110    2.2361417e-06
       3.0145942       0.99997063    2.3058879e-06
       3.0391719       0.99997015    2.3780659e-06
       3.0639499       0.99996966    2.4521433e-06
       3.0889300       0.99996917    2.5288114e-06
       3.1141138       0.99996867    2.6074493e-06
       3.1395029       0.99996816    2.6888832e-06
       3.1650989       0.99996764    2.7723746e-06
       3.1909037       0.99996711    2.8588803e-06
       3.2169188       0.99996658    2.9475295e-06
       3.2431460       0.99996604    3.0394126e-06
       3.2695871       0.99996549    3.1335243e-06
       3.2962437       0.99996493    3.2310862e-06
       3.3231177       0.99996436    3.3309651e-06
       3.3502107       0.99996379    3.4345306e-06
       3.3775247       0.99996320    3.5405070e-06
       3.4050613       0.99996261    3.6504760e-06
       3.4328224       0.99996200    3.7629554e-06
       3.4608099       0.99996139    3.8796926e-06
       3.4890255       0.99996077    3.9990339e-06
       3.5174712       0.99996014    4.1229663e-06
       3.5461488       0.99995950    4.2496069e-06
       3.5750602       0.99995885    4.3810892e-06
       3.6042074       0.99995820    4.5153787e-06
       3.6335921       0.99995753    4.6549258e-06
       3.6632164       0.99995685    4.7973923e-06
       3.6930823       0.99995616    4.9454427e-06
       3.7231916       0.99995546    5.0965482e-06
       3.7535465       0.99995476    5.2535733e-06
       3.7841488       0.99995404    5.4138779e-06
       3.8150006       0.99995331    5.5803441e-06
       3.8461039       0.99995257    5.7503650e-06
       3.8774608       0.99995183    5.9268223e-06
       3.9090734       0.99995107    6.1071314e-06
       3.9409437       0.99995030    6.2941875e-06
       3.9730738       0.99994952    6.4853948e-06
       4.0054659       0.99994873    6.6836286e-06
       4.0381221       0.99994792    6.8863499e-06
       4.0710445       0.99994711    7.0963871e-06
       4.1042353       0.99994629    7.3112557e-06
       4.1376967       0.99994546    7.5337009e-06
       4.1714310       0.99994461    7.7613675e-06
       4.2054403       0.99994376    7.9970318e-06
       4.2397268       0.99994289    8.2383516e-06
       4.2742929       0.99994201    8.4881020e-06
       4.3091408       0.99994112    8.7438938e-06
       4.3442728       0.99994023    9.0082995e-06
       4.3796912       0.99993932    9.2791311e-06
       4.4153984       0.99993840    9.5587074e-06
       4.4513967       0.99993746    9.8453836e-06
       4.4876885       0.99993652    1.0141721e-05
       4.5242762       0.99993557    1.0445560e-05
       4.5611622       0.99993461    1.0759157e-05
       4.5983489       0.99993363    1.1080704e-05
       4.6358388       0.99993265    1.1412194e-05
       4.6736344       0.99993165    1.1752433e-05
       4.7117381       0.99993065    1.2103467e-05
       4.7501524       0.99992963    1.2463714e-05
       4.7888799       0.99992861    1.2834885e-05
       4.8279232       0.99992758    1.3215889e-05
       4.8672848       0.99992654    1.3608223e-05
       4.9069673       0.99992549    1.4011141e-05
       4.9469733       0.99992443    1.4425923e-05
       4.9873055       0.99992336    1.4852026e-05
       5.0279666       0.99992229    1.5290479e-05
       5.0689591       0.99992121    1.5741069e-05
       5.1102858       0.99992012    1.6204531e-05
       5.1519495       0.99991903    1.6680758e-05
       5.1939528       0.99991793    1.7170171e-05
       5.2362986       0.99991683    1.7673467e-05
       5.2789897       0.99991572    1.8190731e-05
       5.3220288       0.99991462    1.8722478e-05
       5.3654187       0.99991351    1.9268419e-05
       5.4091625       0.99991241    1.9829626e-05
       5.4532629       0.99991130    2.0405478e-05
       5.4977228       0.99991020    2.0997997e-05
       5.5425452       0.99990910    2.1606027e-05
       5.5877330       0.99990802    2.2231527e-05
       5.6332893       0.99990694    2.2872915e-05
       5.6792169       0.99990588    2.3532902e-05
       5.7255190       0.99990482    2.4209417e-05
       5.7721986       0.99990380    2.4905610e-05
       5.8192588       0.99990278    2.5618892e-05
       5.8667027       0.99990182    2.6352832e-05
       5.9145333       0.99990086    2.7104387e-05
       5.9627539       0.99989997    2.7877857e-05
       6.0113677       0.99989910    2.8669611e-05
       6.0603778       0.99989833    2.9484497e-05
       6.1097875       0.99989759    3.0318271e-05
       6.1596000       0.99989698    3.1162218e-05
       6.2098186       0.99989641    3.2020769e-05
       6.2604467       0.99989603    3.2915163e-05
       6.3114875       0.99989572    3.3832605e-05
       6.3629444       0.99989574    3.4780125e-05
       6.4148209       0.99989586    3.5749316e-05
       6.4671203       0.99989662    3.6750606e-05
       6.5198461       0.99989753    3.7774429e-05
       6.5730018       0.99990001    3.8832304e-05
       6.6265908       0.99990284    3.9913493e-05
       6.6806168       0.99992516    4.1031426e-05
       6.7350832       0.99995080    4.2173615e-05
       6.7899937       0.99993959    3.8390138e-06
       6.8453519       0.99990230    3.9620325e-06
       6.9011614       0.99989409    4.0902105e-06
       6.9574259       0.99988816    4.2212190e-06
       7.0141491       0.99988384    4.3571541e-06
       7.0713348       0.99987953    4.4959830e-06
       7.1289867       0.99987585    4.6398526e-06
       7.1871086       0.99987212    4.7867064e-06
       7.2457044       0.99986873    4.9370210e-06
       7.3047779       0.99986527    5.0904546e-06
       7.3643331       0.99986199    5.2502931e-06
       7.4243738       0.99985866    5.4135237e-06
       7.4849040       0.99985544    5.5834757e-06
       7.5459277       0.99985217    5.7571269e-06
       7.6074489       0.99984895    5.9378444e-06
       7.6694717       0.99984568    6.1225902e-06
       7.7320001       0.99984245    6.3146635e-06
       7.7950384       0.99983917    6.5111195e-06
       7.8585906       0.99983589    6.7153202e-06
       7.9226609       0.99983256    6.9242926e-06
       7.9872536       0.99982923    7.1414229e-06
       8.0523729       0.99982585    7.3636748e-06
       8.1180231       0.99982246    7.5941136e-06
       8.1842086       0.99981901    7.8299996e-06
       8.2509337       0.99981554    8.0740319e-06
       8.3182027       0.99981202    8.3230602e-06
       8.3860202       0.99980846    8.5772946e-06
       8.4543906       0.99980484    8.8378845e-06
       8.5233185       0.99980119    9.1077415e-06
       8.5928082       0.99979748    9.3844847e-06
       8.6628646       0.99979373    9.6709742e-06
       8.7334921       0.99978991    9.9648103e-06
       8.8046954       0.99978605    1.0268587e-05
       8.8764792       0.99978213    1.0580200e-05
       8.9488483       0.99977815    1.0901986e-05
       9.0218074       0.99977412    1.1232314e-05
       9.0953613       0.99977002    1.1573483e-05
       9.1695149       0.99976586    1.1924021e-05
       9.2442731       0.99976164    1.2286148e-05
       9.3196408       0.99975735    1.2658268e-05
       9.3956229       0.99975300    1.3042319e-05
       9.4722245       0.99974857    1.3437145e-05
       9.5494506       0.99974408    1.3844449e-05
       9.6273064       0.99973952    1.4262723e-05
       9.7057969       0.99973489    1.4693160e-05
       9.7849273       0.99973018    1.5136143e-05
       9.8647029       0.99972540    1.5592761e-05
       9.9451288       0.99972053    1.6062987e-05
       10.026211       0.99971559    1.6547592e-05
       10.107953       0.99971057    1.7046824e-05
       10.190362       0.99970547    1.7561029e-05
       10.273443       0.99970028    1.8090571e-05
       10.357202       0.99969501    1.8635326e-05
       10.441643       0.99968966    1.9196705e-05
       10.526773       0.99968421    1.9774062e-05
       10.612597       0.99967867    2.0369410e-05
       10.699120       0.99967304    2.0981518e-05
       10.786349       0.99966731    2.1613189e-05
       10.874289       0.99966149    2.2262519e-05
       10.962946       0.99965557    2.2932997e-05
       11.052326       0.99964955    2.3621987e-05
       11.142434       0.99964341    2.4333137e-05
       11.233278       0.99963716    2.5063209e-05
       11.324861       0.99963080    2.5840139e-05
       11.417192       0.99962431    2.6648923e-05
       11.510275       0.99961774    2.7506004e-05
       11.604117       0.99961107    2.8394832e-05
       11.698725       0.99960430    2.9316906e-05
       11.794103       0.99959742    3.0263873e-05
       11.890259       0.99959043    3.1246966e-05
       11.987199       0.99958333    3.2256055e-05
       12.084930       0.99957611    3.3304071e-05
       12.183457       0.99956878    3.4379256e-05
       12.282788       0.99956133    3.5496802e-05
       12.382928       0.99955376    3.6642686e-05
       12.483885       0.99954606    3.7832872e-05
       12.585665       0.99953825    3.9052265e-05
       12.688275       0.99953030    4.0320294e-05
       12.791721       0.99952223    4.1618891e-05
       12.896010       0.99951403    4.2970404e-05
       13.001150       0.99950570    4.4353822e-05
       13.107148       0.99949724    4.5794618e-05
       13.214009       0.99948864    4.7268685e-05
       13.321741       0.99947992    4.8804571e-05
       13.430352       0.99947105    5.0375074e-05
       13.539849       0.99946207    5.2012534e-05
       13.650238       0.99945294    5.3685920e-05
       13.761527       0.99944370    5.5378342e-05
       13.873723       0.99943431    5.7104474e-05
       13.986834       0.99942476    5.8847591e-05
       14.100868       0.99941505    6.0625702e-05
       14.215831       0.99940515    6.2475436e-05
       14.331731       0.99939507    6.4363533e-05
       14.448576       0.99938484    6.6327061e-05
       14.566374       0.99937443    6.8332291e-05
       14.685132       0.99936385    7.0416168e-05
       14.804859       0.99935310    7.2545257e-05
       14.925561       0.99934218    7.4757088e-05
       15.047248       0.99933107    7.7018002e-05
       15.169927       0.99931980    7.9365458e-05
       15.293606       0.99930835    8.1766256e-05
       15.418293       0.99929677    8.4258191e-05
       15.543997       0.99928500    8.6790307e-05
       15.670725       0.99927306    8.9314657e-05
       15.798487       0.99926091    9.1893746e-05
       15.927291       0.99924850    9.4545365e-05
       16.057145       0.99923587    9.7259168e-05
       16.188057       0.99922302    0.00010006553
       16.320037       0.99920994    0.00010293858
       16.453092       0.99919665    0.00010590776
       16.587233       0.99918312    0.00010894898
       16.722467       0.99916936    0.00011209126
       16.858803       0.99915537    0.00011531088
       16.996252       0.99914113    0.00011863552
       17.134820       0.99912665    0.00012204368
       17.274519       0.99911190    0.00012556196
       17.415356       0.99909690    0.00012917002
       17.557342       0.99908161    0.00013289290
       17.700486       0.99906604    0.00013674279
       17.844796       0.99905018    0.00014077345
       17.990283       0.99903407    0.00014495115
       18.136956       0.99901774    0.00014933003
       18.284825       0.99900115    0.00015383124
       18.433899       0.99898432    0.00015847736
       18.584189       0.99896723    0.00016325549
       18.735704       0.99894988    0.00016818532
       18.888454       0.99893226    0.00017325743
       19.042450       0.99891437    0.00017848786
       19.197701       0.99889619    0.00018387181
       19.354218       0.99887774    0.00018942125
       19.512011       0.99885900    0.00019513620
       19.671091       0.99883997    0.00020102418
       19.831467       0.99882066    0.00020709068
       19.993151       0.99880105    0.00021333771
       20.156154       0.99878115    0.00021977728
       20.320485       0.99876095    0.00022640579
       20.486156       0.99874046    0.00023324171
       20.653177       0.99871967    0.00024027477
       20.821561       0.99869861    0.00024753089
       20.991317       0.99867727    0.00025499274
       21.162457       0.99865566    0.00026258894
       21.334993       0.99863375    0.00027032696
       21.508935       0.99861149    0.00027820756
       21.684295       0.99858887    0.00028623797
       21.861085       0.99856583    0.00029452235
       22.039316       0.99854237    0.00030302235
       22.219001       0.99851856    0.00031179445
       22.400150       0.99849436    0.00032079095
       22.582776       0.99846979    0.00033007920
       22.766892       0.99844483    0.00033960123
       22.952508       0.99841950    0.00034943646
       23.139637       0.99839376    0.00035951523
       23.328293       0.99836765    0.00036992868
       23.518486       0.99834113    0.00038059505
       23.710230       0.99831423    0.00039162193
       23.903537       0.99828690    0.00040291266
       24.098420       0.99825919    0.00041458812
       24.294892       0.99823105    0.00042653763
       24.492966       0.99820253    0.00043890010
       24.692655       0.99817356    0.00045154770
       24.893972       0.99814422    0.00046463826
       25.096930       0.99811442    0.00047802531
       25.301543       0.99808425    0.00049188615
       25.507824       0.99805362    0.00050605513
       25.715787       0.99802263    0.00052073191
       25.925445       0.99799117    0.00053572862
       26.136813       0.99795939    0.00055126874
       26.349904       0.99792712    0.00056714068
       26.564732       0.99789468    0.00058359592
       26.781312       0.99786174    0.00060039604
       26.999657       0.99782840    0.00061729182
       27.219783       0.99779454    0.00063451294
       27.441703       0.99776019    0.00065231752
       27.665432       0.99772530    0.00067048045
       27.890986       0.99768986    0.00068929235
       28.118378       0.99765385    0.00070848734
       28.347625       0.99761742    0.00072836265
       28.578740       0.99758043    0.00074865054
       28.811740       0.99754301    0.00076964886
       29.046639       0.99750502    0.00079109134
       29.283454       0.99746661    0.00081327498
       29.522199       0.99742762    0.00083593671
       29.762891       0.99738823    0.00085937266
       30.005545       0.99734826    0.00088332248
       30.250177       0.99730790    0.00090808390
       30.496804       0.99726696    0.00093339840
       30.745441       0.99722566    0.00095955676
       30.996106       0.99718378    0.00098630968
       31.248814       0.99714156     0.0010139454
       31.503583       0.99709877     0.0010422194
       31.760428       0.99705568     0.0010714146
       32.019368       0.99701205     0.0011012960
       32.280419       0.99696818     0.0011321430
       32.543598       0.99692382     0.0011637263
       32.808923       0.99687932     0.0011963144
       33.076411       0.99683445     0.0012296938
       33.346079       0.99678969     0.0012641213
       33.617947       0.99674488     0.0012990459
       33.892031       0.99670087     0.0013342272
       34.168349       0.99665597     0.0013695247
       34.446920       0.99660991     0.0014043016
       34.727763       0.99656306     0.0014398971
       35.010895       0.99651531     0.0014764575
       35.296335       0.99646681     0.0015138879
       35.584103       0.99641749     0.0015523210
       35.874217       0.99636752     0.0015916797
       36.166696       0.99631693     0.0016320816
       36.461559       0.99626572     0.0016734692
       36.758827       0.99621393     0.0017159423
       37.058518       0.99616153     0.0017594639
       37.360653       0.99610854     0.0018041141
       37.665250       0.99605499     0.0018498768
       37.972331       0.99600091     0.0018968099
       38.281916       0.99594630     0.0019449296
       38.594025       0.99589116     0.0019942712
       38.908678       0.99583553     0.0020448734
       39.225897       0.99577939     0.0020967431
       39.545702       0.99572284     0.0021499517
       39.868114       0.99566581     0.0022044761
       40.193155       0.99560847     0.0022604239
       40.520846       0.99555070     0.0023177397
       40.851209       0.99549292     0.0023765731
       41.184265       0.99543488     0.0024368324
       41.520036       0.99537670     0.0024979653
       41.858545       0.99531814     0.0025600896
       42.199813       0.99525916     0.0026232923
       42.543864       0.99519960     0.0026876386
       42.890720       0.99513931     0.0027536718
       43.240404       0.99507824     0.0028212044
       43.592939       0.99501688     0.0028905268
       43.948348       0.99495492     0.0029614084
       44.306655       0.99489277     0.0030341846
       44.667883       0.99483005     0.0031085760
       45.032056       0.99476729     0.0031849784
       45.399198       0.99470397     0.0032630601
       45.769333       0.99464075     0.0033432723
       46.142486       0.99457698     0.0034252256
       46.518681       0.99451354     0.0035094334
       46.897943       0.99444960     0.0035954457
       47.280298       0.99438617     0.0036838500
       47.665769       0.99432225     0.0037741268
       48.054384       0.99425914     0.0038669368
       48.446167       0.99419557     0.0039616891
       48.841143       0.99413425     0.0040591180
       49.239341       0.99407273     0.0041585606
       49.640784       0.99401300     0.0042594645
       50.045501       0.99395296     0.0043622266
       50.453517       0.99389381     0.0044640218
       50.864859       0.99383419     0.0045674051
       51.279556       0.99377400     0.0046735676
       51.697633       0.99371317     0.0047817929
       52.119119       0.99365320     0.0048929538
       52.544041       0.99359269     0.0050062519
       52.972427       0.99353370     0.0051226405
       53.404306       0.99347419     0.0052412417
       53.839707       0.99341691     0.0053631054
       54.278657       0.99335923     0.0054872845
       54.721185       0.99330682     0.0056148623
       55.167322       0.99325432     0.0057448852
       55.617096       0.99320832     0.0058784306
       56.070536       0.99316223     0.0060133353
       56.527674       0.99311795     0.0061349101
       56.988539       0.99307304     0.0062586889
       57.453161       0.99302350     0.0063849271
       57.921571       0.99297347     0.0065134901
       58.393800       0.99292157     0.0066448496
       58.869879       0.99286922     0.0067786455
       59.349839       0.99281579     0.0069153582
       59.833713       0.99276185     0.0070546182
       60.321531       0.99270675     0.0071968769
       60.813327       0.99265082     0.0073425840
       61.309132       0.99259253     0.0074948320
       61.808979       0.99253489     0.0076508726
       62.312902       0.99248095     0.0078136330
       62.820933       0.99242756     0.0079795945
       63.333106       0.99237671     0.0081493379
       63.849455       0.99232656     0.0083224385
       64.370013       0.99227889     0.0084994437
       64.894816       0.99223185     0.0086799878
       65.423897       0.99218664     0.0088646119
       65.957292       0.99214159     0.0090511158
       66.495035       0.99209699     0.0092376401
       67.037163       0.99205348     0.0094277444
       67.583710       0.99201225     0.0096217129
       68.134713       0.99195250     0.0098079973
       68.690209       0.99185845     0.0099771561
       69.250234       0.99173894      0.010197640
       69.814824       0.99157768      0.010502077
       70.384018       0.99145408      0.010878628
       70.957852       0.99138903      0.011361526
       71.536364       0.99142917      0.011865401
       72.119593       0.99161388      0.012394415
       72.707578       0.99187380      0.012818901
       73.300355       0.99222646      0.013110028
       73.897966       0.99256718      0.013322915
       74.500449       0.99289319      0.013446153
       75.107844       0.99317065      0.013555499
       75.720191       0.99339783      0.013650459
       76.337530       0.99360512      0.013672782
       76.959903       0.99379413      0.013626609
       77.587350       0.99388757      0.013606454
       78.219912       0.99389985      0.013608143
       78.857631       0.99381491      0.013643493
       79.500550       0.99365445      0.013704640
       80.148710       0.99366549      0.014047233
       80.802155       0.99379700      0.014589025
       81.460927       0.99396086      0.014801422
       82.125070       0.99414709      0.014805786
       82.794628       0.99425590      0.014930600
       83.469644       0.99432196      0.015124730
       84.150164       0.99445409      0.015262040
       84.836232       0.99462215      0.015370817
       85.527894       0.99470726      0.015426209
       86.225195       0.99475573      0.015456632
       86.928180       0.99480070      0.015609714
       87.636897       0.99484533      0.015814072
       88.351392       0.99482087      0.015987741
       89.071713       0.99477132      0.016151612
       89.797906       0.99470368      0.016443114
       90.530020       0.99462959      0.016778880
       91.268102       0.99472499      0.017403327
       92.012202       0.99486977      0.018117596
       92.762369       0.99544569      0.018616473
       93.518651       0.99613614      0.019071296
       94.281100       0.99677470      0.019183552
       95.049764       0.99741577      0.019226709
       95.824696       0.99782010      0.019207344
       96.605945       0.99819311      0.019174900
       97.393564       0.99851354      0.019214335
       98.187605       0.99883384      0.019262168
       98.988119       0.99920367      0.019364694
       99.795159       0.99958693      0.019472859
       100.60878        1.0000918      0.019571360
       101.42903        1.0006174      0.019668959
       102.25597        1.0011608      0.019604807
       103.08966        1.0017178      0.019529001
       103.93014        1.0024436      0.019404408
       104.77747        1.0031897      0.019271507
       105.63171        1.0038641      0.018714744
       106.49292        1.0045406      0.018137747
       107.36114        1.0047550      0.017405401
       108.23645        1.0049635      0.016674930
       109.11889        1.0049820      0.016334545
       110.00852        1.0050115      0.015981436
       110.90541        1.0051790      0.015591012
       111.80961        1.0053430      0.015188681
       112.72119        1.0054468      0.014772799
       113.64019        1.0055494      0.014356099
       114.56669        1.0056326      0.014008499
       115.50074        1.0057068      0.013617246
       116.44241        1.0057230      0.013022090
       117.39175        1.0056781      0.012445318
       118.34883        1.0053363      0.012022029
       119.31372        1.0050135      0.011804042
       120.28647        1.0047988      0.012477771
       121.26716        1.0050444      0.013208736
       122.25584        1.0069673      0.014107569
       123.25258        1.0112071      0.015041976
       124.25744        1.0212070     0.0071982737
       125.27050        1.0116822     0.0017721184
       126.29182        1.0086336     0.0017778456
       127.32147        1.0060404     0.0017835422
       128.35951        1.0046845     0.0017893024
       129.40601        1.0034442     0.0017950377
       130.46104        1.0025000     0.0018008336
       131.52468        1.0016098     0.0018066091
       132.59699        1.0008497     0.0018124377
       133.67804        1.0001196     0.0018182517
       134.76790       0.99945732     0.0018241149
       135.86665       0.99881477     0.0018322913
       136.97436       0.99821385     0.0018442702
       138.09110       0.99762823     0.0018575416
       139.21694       0.99707162     0.0018726858
       140.35196       0.99652506     0.0018879526
       141.49624       0.99599605     0.0019033432
       142.64984       0.99547386     0.0019188611
       143.81285       0.99496231     0.0019345071
       144.98535       0.99444794     0.0019502792
       146.16740       0.99393143     0.0019661776
       147.35909       0.99341703     0.0019954036
       148.56049       0.99290455     0.0020379983
       149.77169       0.99240288     0.0020823668
       150.99277       0.99190983     0.0021284362
       152.22379       0.99141719     0.0021755442
       153.46486       0.99092281     0.0022236739
       154.71604       0.99041861     0.0022728941
       155.97743       0.98990410     0.0023231710
       157.24910       0.98939715     0.0024075818
       158.53114       0.98889164     0.0025157423
       159.82362       0.98839839     0.0026300823
       161.12665       0.98790844     0.0027491934
       162.44030       0.98744102     0.0028745888
       163.76466       0.98698154     0.0030046960
       165.09982       0.98654574     0.0031262784
       166.44586       0.98611710     0.0032449561
       167.80288       0.98568473     0.0033481127
       169.17096       0.98524576     0.0034455662
       170.55019       0.98480569     0.0035462525
       171.94067       0.98435976     0.0036494458
       173.34249       0.98392634     0.0037561192
       174.75573       0.98349166     0.0038654065
       176.18050       0.98307514     0.0039522138
       177.61688       0.98265857     0.0040332824
       179.06498       0.98222741     0.0040905618
       180.52487       0.98178627     0.0041421787
       181.99668       0.98133274     0.0041944038
       183.48048       0.98086964     0.0042473322
       184.97638       0.98040066     0.0043008790
       186.48447       0.97992328     0.0043551500
       188.00486       0.97944736     0.0044100591
       189.53765       0.97896407     0.0044657148
       191.08293       0.97847965     0.0044922916
       192.64081       0.97798713     0.0045152804
       194.21139       0.97746932     0.0045361868
       195.79478       0.97694025     0.0045568142
       197.39107       0.97639597     0.0045777001
       199.00038       0.97584108     0.0045985119
       200.62281       0.97527158     0.0046195885
       202.25847       0.97469117     0.0046405811
       203.90747       0.97409383     0.0046618633
       205.56990       0.97348502     0.0046831051
       207.24590       0.97285356     0.0047084600
       208.93555       0.97221017     0.0047349924
       210.63898       0.97155497     0.0047932204
       212.35630       0.97088848     0.0048522345
       214.08762       0.97022619     0.0049119059
       215.83306       0.96955230     0.0049723797
       217.59272       0.96887412     0.0050335331
       219.36674       0.96818389     0.0050955046
       221.15521       0.96748523     0.0051581729
       222.95827       0.96677416     0.0052216761
       224.77603       0.96605321     0.0052859046
       226.60860       0.96531936     0.0053509824
       228.45612       0.96457393     0.0054167941
       230.31870       0.96381461     0.0054834744
       232.19647       0.96304032     0.0055509255
       234.08954       0.96225202     0.0056218324
       235.99805       0.96144990     0.0057037209
       237.92212       0.96063490     0.0057880320
       239.86188       0.95981103     0.0058776331
       241.81745       0.95897491     0.0059686396
       243.78896       0.95813168     0.0060610352
       245.77655       0.95727459     0.0061548822
       247.78034       0.95640559     0.0062501740
       249.80047       0.95552239     0.0063469543
       251.83707       0.95462669     0.0064452105
       253.89028       0.95371633     0.0065450040
       255.96022       0.95279262     0.0066463319
       258.04704       0.95185380     0.0067492409
       260.15087       0.95090083     0.0068537290
       262.27186       0.94993305     0.0069598454
       264.41013       0.94895172     0.0070675924
       266.56584       0.94795465     0.0071761260
       268.73913       0.94694249     0.0072849489
       270.93013       0.94591295     0.0073933578
       273.13900       0.94486594     0.0075004887
       275.36588       0.94380030     0.0076091824
       277.61091       0.94271566     0.0077194417
       279.87424       0.94161234     0.0078313055
       282.15603       0.94049010     0.0079447868
       284.45642       0.93934852     0.0080599146
       286.77557       0.93818729     0.0081767101
       289.11362       0.93700624     0.0082951962
       291.47073       0.93580499     0.0084154040
       293.84707       0.93458322     0.0085373475
       296.24277       0.93334051     0.0086610675
       298.65801       0.93207677     0.0087865697
       301.09294       0.93079150     0.0089139059
       303.54772       0.92948422     0.0090430641
       306.02252       0.92815442     0.0091741099
       308.51749       0.92680979     0.0093070342
       311.03281       0.92544712     0.0094419118
       313.56863       0.92406164     0.0095660586
       316.12512       0.92265262     0.0096845846
       318.70246       0.92120831     0.0097962615
       321.30081       0.91973325     0.0099049740
       323.92034       0.91822418      0.010014851
       326.56123       0.91668494      0.010126011
       329.22366       0.91511231      0.010238326
       331.90778       0.91350951      0.010351948
       334.61380       0.91187210      0.010466771
       337.34187       0.91020363      0.010582948
       340.09219       0.90849893      0.010700333
       342.86492       0.90676209      0.010819102
       345.66027       0.90498716      0.010939095
       348.47840       0.90317895      0.011060513
       351.31951       0.90133012      0.011183182
       354.18379       0.89944668      0.011307318
       357.07142       0.89752034      0.011432713
       359.98258       0.89555811      0.011559615
       362.91749       0.89354967      0.011687811
       365.87632       0.89150385      0.011817556
       368.85927       0.88940852      0.011948602
       371.86655       0.88727434      0.012081237
       374.89834       0.88508635      0.012215220
       377.95485       0.88285794      0.012350842
       381.03628       0.88056967      0.012487792
       384.14283       0.87823922      0.012626423
       387.27471       0.87583563      0.012766438
       390.43212       0.87338757      0.012908181
       393.61528       0.87087315      0.013084839
       396.82438       0.86831332      0.013265051
       400.05966       0.86569420      0.013461943
       403.32130       0.86302829      0.013661940
       406.60954       0.86031108      0.013864780
       409.92459       0.85754450      0.014070758
       413.26667       0.85470657      0.014279665
       419.986      0.853000     0.0142000
       430.038      0.843000     0.0147000
       439.957      0.834000     0.0152000
       450.018      0.824000     0.0158000
       460.037      0.814000     0.0168000
       469.977      0.803000     0.0178000
       479.985      0.792000     0.0192000
       490.040      0.778000     0.0205000
       499.919      0.766000     0.0223000
       509.996      0.752000     0.0243000
       520.050      0.737000     0.0264000
       530.056      0.722000     0.0292000
       539.983      0.706000     0.0325000
       550.044      0.691000     0.0365000
       559.982      0.675000     0.0405000
       570.023      0.659000     0.0455000
       579.888      0.644000     0.0510000
       590.100      0.627000     0.0580000
       600.097      0.610000     0.0650000
       609.838      0.590000     0.0740000
       619.900      0.567000     0.0835000
       619.900      0.569000      0.122000
       629.980      0.549000     0.0930000
       635.795      0.542000      0.140000
       640.062      0.530000      0.100000
       650.131      0.513000      0.113000
       652.526      0.514000      0.163000
       670.162      0.485000      0.189000
       688.778      0.455000      0.219000
       698.479      0.440000      0.237000
       708.457      0.426000      0.255000
       718.725      0.411000      0.275000
       729.294      0.397000      0.296000
       737.976      0.386000      0.314000
       742.395      0.379000      0.323000
       746.867      0.374000      0.333000
       751.394      0.369000      0.342000
       762.954      0.357000      0.367000
       774.875      0.345000      0.394000
       787.175      0.333000      0.421000
       799.871      0.323000      0.450000
       812.984      0.313000      0.479000
       826.533      0.304000      0.510000
       840.542      0.296000      0.541000
       855.034      0.288000      0.573000
       870.035      0.281000      0.607000
       885.571      0.275000      0.641000
       901.673      0.269000      0.677000
       918.370      0.265000      0.714000
       935.698      0.261000      0.752000
       953.692      0.258000      0.792000
       972.392      0.256000      0.833000
       991.840      0.255000      0.875000
       1012.08      0.256000      0.918000
       1033.17      0.257000      0.963000
       1055.15      0.259000       1.01000
       1078.09      0.263000       1.06000
       1102.04      0.267000       1.11000
       1127.09      0.272000       1.16000
       1153.30      0.278000       1.21000
       1180.76      0.286000       1.26000
       1209.56      0.295000       1.32000
       1239.80      0.306000       1.38000
       1271.59      0.318000       1.45000
       1305.05      0.332000       1.51000
       1340.32      0.348000       1.58000
       1377.56      0.367000       1.66000
       1416.91      0.389000       1.73000
       1458.59      0.414000       1.82000
       1502.79      0.444000       1.90000
       1549.75      0.478000       2.00000
       1599.74      0.517000       2.10000
       1653.07      0.563000       2.21000
       1710.07      0.618000       2.32000
       1771.14      0.682000       2.45000
       1836.74      0.756000       2.58000
       1907.38      0.847000       2.73000
       1983.68      0.968000       2.89000
       2066.33       1.01000       2.90900
       2073.24       1.03600       2.92800
       2080.20       1.04600       2.94400
       2087.21       1.06600       2.93700
       2094.26       1.07000       2.96300
       2101.36       1.08300       2.98200
       2108.50       1.08800       2.98700
       2115.70       1.10200       3.00500
       2122.95       1.10900       3.01500
       2130.24       1.11900       3.02500
       2137.59       1.13300       3.04500
       2144.98       1.13900       3.06100
       2152.43       1.15500       3.07300
       2159.93       1.16400       3.08600
       2167.48       1.17500       3.10200
       2175.09       1.18000       3.11200
       2182.75       1.19500       3.13500
       2190.46       1.21100       3.15000
       2198.23       1.22200       3.16900
       2206.05       1.23500       3.19000
       2213.93       1.24700       3.20600
       2221.86       1.26500       3.22800
       2229.86       1.28000       3.24500
       2237.91       1.29900       3.26700
       2246.01       1.31900       3.28500
       2254.18       1.34000       3.30200
       2262.41       1.36200       3.31900
       2270.70       1.38900       3.33400
       2279.04       1.41600       3.35000
       2287.45       1.44500       3.35900
       2295.93       1.47100       3.36600
       2304.46       1.50200       3.36800
       2313.06       1.52600       3.36800
       2321.72       1.54800       3.36400
       2330.45       1.56600       3.35800
       2339.25       1.57900       3.35300
       2348.11       1.58500       3.34600
       2357.03       1.59000       3.34400
       2366.03       1.59100       3.34400
       2375.10       1.59200       3.34700
       2384.23       1.58900       3.35400
       2393.44       1.58600       3.36300
       2402.71       1.58200       3.37600
       2412.06       1.57900       3.38900
       2421.48       1.57300       3.40800
       2430.98       1.57100       3.42900
       2440.55       1.57000       3.45100
       2450.20       1.56900       3.47700
       2459.92       1.56800       3.50400
       2469.72       1.56900       3.53300
       2479.60       1.57000       3.56500
       2489.56       1.57500       3.59800
       2499.60       1.58000       3.63200
       2509.72       1.58400       3.67000
       2519.92       1.59100       3.70900
       2530.20       1.59700       3.74900
       2540.57       1.60800       3.78900
       2551.03       1.61800       3.83500
       2561.57       1.62900       3.88000
       2572.20       1.64300       3.92800
       2582.92       1.65800       3.97900
       2593.72       1.67300       4.03100
       2604.62       1.69200       4.08800
       2615.61       1.71300       4.14900
       2626.70       1.73700       4.21100
       2637.87       1.76400       4.27800
       2649.15       1.79400       4.35000
       2660.52       1.83100       4.42600
       2671.98       1.87400       4.50600
       2683.55       1.92700       4.59000
       2695.22       1.98800       4.67800
       2706.99       2.05900       4.76400
       2718.86       2.14000       4.84900
       2730.84       2.23400       4.93300
       2742.92       2.33900       5.01100
       2755.11       2.45100       5.08200
       2767.41       2.57200       5.14800
       2779.82       2.70000       5.20600
       2792.34       2.83300       5.25700
       2804.98       2.97400       5.30400
       2817.73       3.12000       5.34400
       2830.59       3.27700       5.38100
       2843.58       3.44400       5.41400
       2856.68       3.63400       5.43500
       2869.91       3.84900       5.43900
       2883.26       4.08600       5.39500
       2896.73       4.31800       5.30100
       2910.33       4.52500       5.15800
       2924.06       4.68600       4.98900
       2937.91       4.80500       4.81200
       2951.90       4.88800       4.63900
       2966.03       4.94100       4.48000
       2980.29       4.97700       4.33500
       2994.69       4.99900       4.20400
       3009.22       5.01200       4.08600
       3023.90       5.02000       3.97900
       3038.73       5.02100       3.88500
       3053.69       5.02000       3.79800
       3068.81       5.01800       3.72000
       3084.08       5.01500       3.65000
       3099.50       5.01000       3.58700
       3115.08       5.00900       3.52900
       3130.81       5.01000       3.47700
       3146.70       5.00900       3.42900
       3162.76       5.01200       3.38600
       3178.97       5.01600       3.34600
       3195.36       5.02100       3.31000
       3211.92       5.02900       3.27500
       3228.65       5.04000       3.24200
       3245.55       5.05200       3.21100
       3262.63       5.06500       3.18200
       3279.89       5.07900       3.15400
       3297.34       5.09500       3.12800
       3314.97       5.11500       3.10300
       3332.80       5.13400       3.07900
       3350.81       5.15600       3.05800
       3369.02       5.17900       3.03900
       3387.43       5.20400       3.02100
       3406.04       5.23100       3.00700
       3424.86       5.26100       2.99500
       3443.89       5.29600       2.98700
       3463.13       5.33600       2.98300
       3482.58       5.38300       2.98400
       3502.26       5.44200       2.98900
       3522.16       5.51500       2.99900
       3542.29       5.61000       3.01400
       3562.64       5.73300       3.02600
       3583.24       5.89400       3.02300
       3604.07       6.08900       2.98200
       3625.15       6.30800       2.88100
       3646.47       6.52200       2.70500
       3668.05       6.69500       2.45600
       3689.88       6.79600       2.16900
       3711.98       6.82900       1.87000
       3734.34       6.79900       1.57700
       3756.97       6.70900       1.32100
       3779.88       6.58500       1.11000
       3803.07       6.45200      0.945000
       3826.54       6.31600      0.815000
       3850.31       6.18500      0.714000
       3874.38       6.06200      0.630000
       3898.74       5.94800      0.561000
       3923.42       5.84200      0.505000
       3948.41       5.74400      0.456000
       3973.72       5.65400      0.416000
       3999.35       5.57000      0.387000
       4025.32       5.49300      0.355000
       4051.63       5.42000      0.329000
       4078.29       5.34900      0.313000
       4105.30       5.28400      0.291000
       4132.67       5.22200      0.269000
       4160.40       5.16400      0.255000
       4188.51       5.10900      0.244000
       4217.01       5.05800      0.228000
       4245.89       5.00900      0.211000
       4275.17       4.96100      0.203000
       4304.86       4.91600      0.194000
       4334.97       4.87200      0.185000
       4365.49       4.83100      0.185000
       4396.45       4.79100      0.170000
       4427.86       4.75300      0.163000
       4459.71       4.71800      0.149000
       4492.03       4.68200      0.149000
       4524.82       4.64800      0.133000
       4558.09       4.61500      0.131000
       4591.85       4.58300      0.130000
       4626.12       4.55300      0.131000
       4660.90       4.52200      0.134000
       4696.21       4.49500      0.120000
       4732.06       4.46600      0.120000
       4768.46       4.44200     0.0900000
       4805.43       4.41600     0.0940000
       4842.97       4.39100     0.0830000
       4881.10       4.36700     0.0790000
       4919.84       4.34300     0.0770000
       4959.20       4.32000     0.0730000
       4999.19       4.29800     0.0730000
       5039.84       4.27700     0.0660000
       5081.15       4.25500     0.0720000
       5123.14       4.23500     0.0600000
       5165.83       4.21500     0.0600000
       5209.24       4.19600     0.0560000
       5253.39       4.17700     0.0530000
       5298.29       4.15900     0.0430000
       5343.97       4.14000     0.0450000
       5390.44       4.12300     0.0480000
       5437.72       4.10600     0.0440000
       5485.84       4.08900     0.0440000
       5534.82       4.07300     0.0320000
       5584.68       4.05700     0.0380000
       5635.45       4.04200     0.0320000
       5687.16       4.02600     0.0340000
       5739.81       4.01200     0.0300000
       5793.46       3.99700     0.0270000
       5848.11       3.98300     0.0300000
       5903.81       3.96900     0.0300000
       5960.58       3.95600     0.0270000
       6018.45       3.94300     0.0250000
       6077.45       3.93100     0.0250000
       6137.62       3.91800     0.0240000
       6199.00       3.90600     0.0220000
       6261.62       3.89300     0.0220000
       6325.51       3.88200     0.0190000
       6390.72       3.87000     0.0180000
       6457.29       3.85800     0.0170000
       6525.26       3.84700     0.0160000
       6594.68       3.83700     0.0160000
       6665.59       3.82600     0.0150000
       6738.04       3.81500     0.0140000
       6812.09       3.80500     0.0130000
       6887.78       3.79600     0.0130000
       6965.17       3.78700     0.0130000
       7044.32       3.77800     0.0120000
       7125.29       3.76800     0.0110000
       7208.14       3.76100     0.0110000
       7292.94       3.75200     0.0100000
       7379.76       3.74500     0.0100000
       7468.67       3.73600    0.00900000
       7559.76       3.72800    0.00900000
       7653.09       3.72100    0.00800000
       7748.75       3.71400    0.00800000
       7846.84       3.70500    0.00700000
       7947.44       3.69700    0.00700000
       8050.65       3.68800    0.00600000
       8156.58       3.68100    0.00600000
       8265.33       3.67300    0.00500000
       11199.6       3.53610       0.00000
       11437.3       3.52950       0.00000
       12001.9       3.51930       0.00000
       13719.2       3.50070       0.00000
       13999.5       3.48760       0.00000
       15319.4       3.47840       0.00000
       15999.5       3.47100       0.00000
       16960.3       3.46440       0.00000
       17999.4       3.45780       0.00000
       20000.0       3.44900       0.00000
       24371.9       3.44340       0.00000
       25001.0       3.44240       0.00000
       27141.0       3.43930   2.50000e-09
       29997.6       3.43610       0.00000
       33034.9       3.43350       0.00000
       34191.9       3.43270       0.00000
       35002.8       3.43210       0.00000
       39993.5       3.42940       0.00000
       49991.9       3.42610   1.99000e-07
       60009.7       3.42420       0.00000
       70005.6       3.42310       0.00000
       79987.1       3.42240   1.53000e-05
       89971.0       3.42190       0.00000
       99983.9       3.42150   6.76000e-05
       134996.       3.42090       0.00000
       145006.       3.42080       0.00000
       150006.       3.42070       0.00000
       200000.       3.42040   0.000286000
       250010.       3.42010   9.15000e-05
       302981.       3.42000       0.00000
       499919.       3.41970       0.00000
       624899.       3.41950   0.000170000
       714170.       3.41920   0.000190000
       833199.       3.41900   0.000230000
       908944.       3.41880       0.00000
       999839.       3.41850   0.000290000
   1.24992e+06       3.41800   0.000430000
   1.66864e+06       3.41700   0.000720000
   2.00000e+06       3.41650    0.00100000
   2.50010e+06       3.41600    0.00140000
   3.33280e+06       3.41550       0.00000
