;  Optical constants for W
;  
;  Concatenation of:
;
;  W_llnl_cxro + W_palik
;
;    Lambda (A)            n            k
;-----------------------------------------
      0.12398000       0.99999968    7.9216349e-09
      0.12499080       0.99999967    8.1607060e-09
      0.12600983       0.99999967    8.4068448e-09
      0.12703718       0.99999966    8.6600962e-09
      0.12807290       0.99999966    8.9198151e-09
      0.12911707       0.99999965    9.1878019e-09
      0.13016975       0.99999965    9.4631299e-09
      0.13123101       0.99999964    9.7458867e-09
      0.13230092       0.99999964    1.0036597e-08
      0.13337956       0.99999963    1.0335718e-08
      0.13446699       0.99999962    1.0645433e-08
      0.13556329       0.99999962    1.0961723e-08
      0.13666852       0.99999961    1.1290270e-08
      0.13778277       0.99999961    1.1625502e-08
      0.13890610       0.99999960    1.1971925e-08
      0.14003858       0.99999959    1.2328260e-08
      0.14118030       0.99999959    1.2694739e-08
      0.14233133       0.99999958    1.3072274e-08
      0.14349175       0.99999957    1.3458464e-08
      0.14466162       0.99999957    1.3859241e-08
      0.14584103       0.99999956    1.4268044e-08
      0.14703006       0.99999955    1.4695434e-08
      0.14822878       0.99999954    1.5134870e-08
      0.14943728       0.99999954    1.5586784e-08
      0.15065563       0.99999953    1.6059367e-08
      0.15188391       0.99999952    1.6541458e-08
      0.15312220       0.99999952    1.7042134e-08
      0.15437059       0.99999951    1.7555093e-08
      0.15562916       0.99999950    1.8082721e-08
      0.15689799       0.99999949    1.8627699e-08
      0.15817716       0.99999948    1.9187948e-08
      0.15946677       0.99999948    1.9761401e-08
      0.16076688       0.99999947    2.0346328e-08
      0.16207760       0.99999946    2.0940760e-08
      0.16339900       0.99999945    2.1547048e-08
      0.16473118       0.99999944    2.2168631e-08
      0.16607422       0.99999944    2.2809082e-08
      0.16742821       0.99999943    2.3472531e-08
      0.16879323       0.99999942    2.4176492e-08
      0.17016939       0.99999941    2.4927021e-08
      0.17155676       0.99999940    2.5668794e-08
      0.17295545       0.99999939    2.6412719e-08
      0.17436554       0.99999939    2.7162877e-08
      0.17578712       0.99999938    2.7947132e-08
      0.17722030       0.99999938    2.8753252e-08
      0.17866516       0.99999937    5.8172336e-09
      0.18012180       0.99999935    5.9988347e-09
      0.18159031       0.99999934    6.1859752e-09
      0.18307080       0.99999932    6.3793844e-09
      0.18456336       0.99999931    6.5789265e-09
      0.18606809       0.99999930    6.7844338e-09
      0.18758508       0.99999929    6.9963407e-09
      0.18911444       0.99999927    7.2151035e-09
      0.19065628       0.99999926    7.4397552e-09
      0.19221068       0.99999925    7.6731753e-09
      0.19377775       0.99999923    7.9117667e-09
      0.19535760       0.99999922    8.1600570e-09
      0.19695034       0.99999921    8.4138233e-09
      0.19855605       0.99999919    8.6768883e-09
      0.20017486       0.99999918    8.9484075e-09
      0.20180687       0.99999917    9.2272095e-09
      0.20345218       0.99999915    9.5156556e-09
      0.20511091       0.99999914    9.8134432e-09
      0.20678315       0.99999912    1.0118886e-08
      0.20846904       0.99999911    1.0434879e-08
      0.21016867       0.99999909    1.0761838e-08
      0.21188215       0.99999908    1.1095409e-08
      0.21360961       0.99999906    1.1441462e-08
      0.21535114       0.99999905    1.1798249e-08
      0.21710688       0.99999903    1.2167204e-08
      0.21887693       0.99999901    1.2546385e-08
      0.22066141       0.99999900    1.2937766e-08
      0.22246045       0.99999898    1.3342147e-08
      0.22427414       0.99999896    1.3758265e-08
      0.22610263       0.99999895    1.4186375e-08
      0.22794602       0.99999893    1.4629222e-08
      0.22980444       0.99999891    1.5082301e-08
      0.23167802       0.99999889    1.5554475e-08
      0.23356687       0.99999888    1.6036340e-08
      0.23547111       0.99999886    1.6537859e-08
      0.23739089       0.99999884    1.7051918e-08
      0.23932631       0.99999882    1.7582582e-08
      0.24127752       0.99999880    1.8131294e-08
      0.24324463       0.99999878    1.8692221e-08
      0.24522778       0.99999876    1.9278148e-08
      0.24722710       0.99999874    1.9875975e-08
      0.24924272       0.99999872    2.0492716e-08
      0.25127477       0.99999870    2.1129302e-08
      0.25332339       0.99999867    2.1785264e-08
      0.25538871       0.99999865    2.2462123e-08
      0.25747087       0.99999863    2.3160934e-08
      0.25957000       0.99999861    2.3880837e-08
      0.26168625       0.99999858    2.4622444e-08
      0.26381975       0.99999856    2.5386362e-08
      0.26597065       0.99999854    2.6176402e-08
      0.26813908       0.99999851    2.6990367e-08
      0.27032520       0.99999849    2.7829601e-08
      0.27252913       0.99999846    2.8695049e-08
      0.27475103       0.99999844    2.9586677e-08
      0.27699105       0.99999841    3.0505990e-08
      0.27924933       0.99999838    3.1449580e-08
      0.28152603       0.99999836    3.2426731e-08
      0.28382128       0.99999833    3.3431153e-08
      0.28613525       0.99999830    3.4471121e-08
      0.28846808       0.99999827    3.5533241e-08
      0.29081993       0.99999825    3.6634674e-08
      0.29319096       0.99999822    3.7770142e-08
      0.29558132       0.99999819    3.8935816e-08
      0.29799117       0.99999816    4.0142658e-08
      0.30042066       0.99999813    4.1384265e-08
      0.30286996       0.99999810    4.2662996e-08
      0.30533923       0.99999806    4.3982100e-08
      0.30782863       0.99999803    4.5343457e-08
      0.31033833       0.99999800    4.6747149e-08
      0.31286848       0.99999797    4.8192241e-08
      0.31541927       0.99999793    4.9681004e-08
      0.31799085       0.99999790    5.1210456e-08
      0.32058340       0.99999786    5.2795842e-08
      0.32319709       0.99999783    5.4425416e-08
      0.32583208       0.99999779    5.6103222e-08
      0.32848856       0.99999776    5.7835537e-08
      0.33116670       0.99999772    5.9613170e-08
      0.33386667       0.99999768    6.1451299e-08
      0.33658865       0.99999764    6.3344626e-08
      0.33933282       0.99999760    6.5291093e-08
      0.34209937       0.99999756    6.7306521e-08
      0.34488847       0.99999752    6.9375055e-08
      0.34770032       0.99999748    7.1510599e-08
      0.35053508       0.99999744    7.3713944e-08
      0.35339296       0.99999740    7.5986325e-08
      0.35627414       0.99999736    7.8324286e-08
      0.35917881       0.99999731    8.0730878e-08
      0.36210716       0.99999727    8.3220172e-08
      0.36505938       0.99999722    8.5778718e-08
      0.36803568       0.99999718    8.8420193e-08
      0.37103624       0.99999713    9.1136098e-08
      0.37406126       0.99999708    9.3947140e-08
      0.37711095       0.99999703    9.6834965e-08
      0.38018549       0.99999698    9.9801775e-08
      0.38328511       0.99999694    1.0286857e-07
      0.38641000       0.99999688    1.0603431e-07
      0.38956036       0.99999683    1.0928663e-07
      0.39273641       0.99999678    1.1264197e-07
      0.39593835       0.99999673    1.1610077e-07
      0.39916640       0.99999667    1.1967075e-07
      0.40242076       0.99999662    1.2333562e-07
      0.40570166       0.99999656    1.2713400e-07
      0.40900931       0.99999651    1.3008059e-07
      0.41234392       0.99999645    1.3137783e-07
      0.41570572       0.99999639    1.3466780e-07
      0.41909493       0.99999633    1.3878163e-07
      0.42251177       0.99999627    1.4304130e-07
      0.42595647       0.99999621    1.4740827e-07
      0.42942925       0.99999614    1.5193253e-07
      0.43293034       0.99999608    1.5656857e-07
      0.43645998       0.99999602    1.6137266e-07
      0.44001840       0.99999595    1.6629296e-07
      0.44360583       0.99999588    1.7139520e-07
      0.44722250       0.99999581    1.7661864e-07
      0.45086866       0.99999575    1.8203648e-07
      0.45454455       0.99999568    1.8758031e-07
      0.45825041       0.99999560    1.9333326e-07
      0.46198648       0.99999553    1.9921733e-07
      0.46575301       0.99999546    2.0532605e-07
      0.46955025       0.99999538    2.1157077e-07
      0.47337845       0.99999531    2.1805755e-07
      0.47723786       0.99999523    2.2468593e-07
      0.48112873       0.99999515    2.3157292e-07
      0.48505133       0.99999507    2.3860683e-07
      0.48900590       0.99999499    2.4591850e-07
      0.49299272       0.99999491    2.5338251e-07
      0.49701204       0.99999483    2.6114479e-07
      0.50106413       0.99999474    2.6906734e-07
      0.50514926       0.99999465    2.7730537e-07
      0.50926770       0.99999457    2.8571559e-07
      0.51341971       0.99999448    2.9445765e-07
      0.51760557       0.99999439    3.0338670e-07
      0.52182555       0.99999429    3.1266180e-07
      0.52607995       0.99999420    3.2213970e-07
      0.53036903       0.99999411    3.3197988e-07
      0.53469307       0.99999401    3.4203986e-07
      0.53905238       0.99999391    3.5247957e-07
      0.54344722       0.99999381    3.6315735e-07
      0.54787789       0.99999371    3.7423287e-07
      0.55234469       0.99999361    3.8556581e-07
      0.55684790       0.99999350    3.9731421e-07
      0.56138783       0.99999340    4.0934123e-07
      0.56596477       0.99999329    4.2180376e-07
      0.57057902       0.99999318    4.3456735e-07
      0.57523090       0.99999307    4.4778426e-07
      0.57992070       0.99999295    4.6132647e-07
      0.58464874       0.99999284    4.7534542e-07
      0.58941532       0.99999272    4.8971596e-07
      0.59422077       0.99999260    5.0458365e-07
      0.59906539       0.99999248    5.1983122e-07
      0.60394951       0.99999236    5.3559892e-07
      0.60887346       0.99999224    5.5177557e-07
      0.61383754       0.99999211    5.6849419e-07
      0.61884210       0.99999198    5.8565463e-07
      0.62388746       0.99999185    6.0338249e-07
      0.62897395       0.99999172    6.2158579e-07
      0.63410192       0.99999159    6.4037903e-07
      0.63927169       0.99999145    6.5968628e-07
      0.64448361       0.99999131    6.7961255e-07
      0.64973802       0.99999117    7.0009144e-07
      0.65503527       0.99999103    7.2121416e-07
      0.66037571       0.99999088    7.4293169e-07
      0.66575969       0.99999074    7.6532418e-07
      0.67118757       0.99999059    7.8835466e-07
      0.67665969       0.99999044    8.1208493e-07
      0.68217644       0.99999028    8.3650247e-07
      0.68773815       0.99999013    8.6165323e-07
      0.69334522       0.99998997    8.8754349e-07
      0.69899799       0.99998981    9.1419836e-07
      0.70469686       0.99998965    9.4164411e-07
      0.71044218       0.99998948    9.6988286e-07
      0.71623435       0.99998931    9.9897578e-07
      0.72207374       0.99998914    1.0288997e-06
      0.72796073       0.99998897    1.0597391e-06
      0.73389573       0.99998879    1.0914416e-06
      0.73987911       0.99998862    1.1241241e-06
      0.74591127       0.99998844    1.1577059e-06
      0.75199261       0.99998825    1.1923395e-06
      0.75812354       0.99998807    1.2279100e-06
      0.76430445       0.99998788    1.2646031e-06
      0.77053575       0.99998769    1.3022706e-06
      0.77681785       0.99998750    1.3411458e-06
      0.78315117       0.99998730    1.3810381e-06
      0.78953613       0.99998710    1.4222241e-06
      0.79597314       0.99998690    1.4644659e-06
      0.80246263       0.99998670    1.5080903e-06
      0.80900503       0.99998649    1.5528113e-06
      0.81560077       0.99998628    1.5990095e-06
      0.82225028       0.99998607    1.6463486e-06
      0.82895401       0.99998586    1.6952697e-06
      0.83571239       0.99998564    1.7453769e-06
      0.84252588       0.99998542    1.7971660e-06
      0.84939491       0.99998520    1.8501835e-06
      0.85631994       0.99998498    1.9050169e-06
      0.86330144       0.99998475    1.9611337e-06
      0.87033985       0.99998452    2.0191668e-06
      0.87743565       0.99998429    2.0785279e-06
      0.88458929       0.99998406    2.1399500e-06
      0.89180126       0.99998383    2.2027540e-06
      0.89907203       0.99998359    2.2677429e-06
      0.90640208       0.99998335    2.3341633e-06
      0.91379189       0.99998311    2.4029242e-06
      0.92124195       0.99998287    2.4731747e-06
      0.92875274       0.99998262    2.5458934e-06
      0.93632477       0.99998238    2.6201535e-06
      0.94395854       0.99998214    2.6970727e-06
      0.95165454       0.99998189    2.7755946e-06
      0.95941329       0.99998165    2.8569106e-06
      0.96723529       0.99998141    2.9398865e-06
      0.97512107       0.99998117    3.0258758e-06
      0.98307114       0.99998093    3.1136133e-06
      0.99108602       0.99998071    3.2044630e-06
      0.99916625       0.99998049    3.2971903e-06
       1.0073124       0.99998031    3.3931680e-06
       1.0155249       0.99998018    3.4911532e-06
       1.0238044       0.99998083    3.5923791e-06
       1.0321513       0.99997970    3.2262700e-06
       1.0405664       0.99997940    3.3246282e-06
       1.0490500       0.99997911    3.4251998e-06
       1.0576028       0.99997895    3.5295732e-06
       1.0662253       0.99997908    3.6362758e-06
       1.0749182       0.99998050    2.6759382e-06
       1.0836819       0.99997814    2.7602617e-06
       1.0925170       0.99997764    2.8474661e-06
       1.1014242       0.99997714    2.9368126e-06
       1.1104040       0.99997674    3.0295679e-06
       1.1194570       0.99997633    3.1246477e-06
       1.1285839       0.99997596    3.2232978e-06
       1.1377851       0.99997560    3.3244719e-06
       1.1470613       0.99997526    3.4293990e-06
       1.1564132       0.99997493    3.5370706e-06
       1.1658413       0.99997464    3.6486870e-06
       1.1753463       0.99997438    3.7632789e-06
       1.1849288       0.99997419    3.8819942e-06
       1.1945894       0.99997416    4.0039409e-06
       1.2043288       0.99997449    4.1302219e-06
       1.2141476       0.99997870    4.2596202e-06
       1.2240464       0.99997544    1.7009730e-06
       1.2340259       0.99997245    1.7507811e-06
       1.2440868       0.99997166    1.8021202e-06
       1.2542298       0.99997091    1.8552688e-06
       1.2644554       0.99997024    1.9107726e-06
       1.2747644       0.99996958    1.9677682e-06
       1.2851574       0.99996894    2.0264697e-06
       1.2956351       0.99996830    2.0868209e-06
       1.3061983       0.99996767    2.1490186e-06
       1.3168476       0.99996704    2.2129865e-06
       1.3275838       0.99996640    2.2788757e-06
       1.3384074       0.99996577    2.3466860e-06
       1.3493193       0.99996512    2.4165226e-06
       1.3603202       0.99996448    2.4883872e-06
       1.3714108       0.99996382    2.5623278e-06
       1.3825918       0.99996316    2.6384695e-06
       1.3938639       0.99996249    2.7167958e-06
       1.4052279       0.99996182    2.7974403e-06
       1.4166846       0.99996113    2.8803233e-06
       1.4282347       0.99996044    2.9657408e-06
       1.4398790       0.99995973    3.0535335e-06
       1.4516182       0.99995902    3.1440718e-06
       1.4634531       0.99995829    3.2370971e-06
       1.4753845       0.99995756    3.3330495e-06
       1.4874131       0.99995681    3.4315817e-06
       1.4995399       0.99995606    3.5332202e-06
       1.5117655       0.99995529    3.6375234e-06
       1.5240907       0.99995451    3.7452221e-06
       1.5365165       0.99995372    3.8557258e-06
       1.5490436       0.99995292    3.9698246e-06
       1.5616728       0.99995211    4.0868309e-06
       1.5744049       0.99995128    4.2076308e-06
       1.5872409       0.99995044    4.3314282e-06
       1.6001815       0.99994959    4.4594352e-06
       1.6132277       0.99994872    4.5906185e-06
       1.6263801       0.99994784    4.7261958e-06
       1.6396399       0.99994695    4.8650371e-06
       1.6530077       0.99994604    5.0087032e-06
       1.6664845       0.99994512    5.1557973e-06
       1.6800712       0.99994418    5.3079158e-06
       1.6937687       0.99994323    5.4635598e-06
       1.7075778       0.99994227    5.6247490e-06
       1.7214995       0.99994128    5.7896390e-06
       1.7355347       0.99994029    5.9603066e-06
       1.7496844       0.99993927    6.1347923e-06
       1.7639494       0.99993825    6.3155170e-06
       1.7783307       0.99993720    6.5002243e-06
       1.7928292       0.99993614    6.6916986e-06
       1.8074460       0.99993506    6.8873121e-06
       1.8221819       0.99993396    7.0901014e-06
       1.8370380       0.99993285    7.2971875e-06
       1.8520152       0.99993172    7.5119370e-06
       1.8671145       0.99993057    7.7311424e-06
       1.8823369       0.99992940    7.9584778e-06
       1.8976834       0.99992821    8.1904470e-06
       1.9131550       0.99992701    8.4313103e-06
       1.9287528       0.99992579    8.6771072e-06
       1.9444777       0.99992454    8.9319347e-06
       1.9603309       0.99992328    9.1920947e-06
       1.9763133       0.99992199    9.4618714e-06
       1.9924260       0.99992069    9.7374066e-06
       2.0086700       0.99991937    1.0022921e-05
       2.0250465       0.99991802    1.0314640e-05
       2.0415565       0.99991665    1.0616746e-05
       2.0582011       0.99991526    1.0925566e-05
       2.0749815       0.99991385    1.1245336e-05
       2.0918986       0.99991242    1.1572330e-05
       2.1089536       0.99991096    1.1910732e-05
       2.1261477       0.99990948    1.2256927e-05
       2.1434820       0.99990798    1.2615056e-05
       2.1609576       0.99990646    1.2981570e-05
       2.1785757       0.99990491    1.3360473e-05
       2.1963374       0.99990333    1.3748451e-05
       2.2142439       0.99990174    1.4149573e-05
       2.2322964       0.99990011    1.4560350e-05
       2.2504961       0.99989846    1.4984495e-05
       2.2688442       0.99989679    1.5419132e-05
       2.2873419       0.99989509    1.5868035e-05
       2.3059904       0.99989336    1.6328147e-05
       2.3247909       0.99989161    1.6802974e-05
       2.3437447       0.99988983    1.7289924e-05
       2.3628530       0.99988802    1.7792389e-05
       2.3821171       0.99988618    1.8307873e-05
       2.4015383       0.99988432    1.8839493e-05
       2.4211178       0.99988243    1.9384976e-05
       2.4408569       0.99988051    1.9947090e-05
       2.4607570       0.99987856    2.0524183e-05
       2.4808193       0.99987658    2.1118845e-05
       2.5010452       0.99987457    2.1729607e-05
       2.5214360       0.99987253    2.2358668e-05
       2.5419930       0.99987045    2.3005036e-05
       2.5627176       0.99986835    2.3670470e-05
       2.5836112       0.99986622    2.4354358e-05
       2.6046751       0.99986405    2.5058019e-05
       2.6259108       0.99986186    2.5781485e-05
       2.6473196       0.99985963    2.6525539e-05
       2.6689029       0.99985736    2.7290859e-05
       2.6906622       0.99985507    2.8077688e-05
       2.7125989       0.99985274    2.8887386e-05
       2.7347145       0.99985037    2.9719601e-05
       2.7570104       0.99984798    3.0576184e-05
       2.7794880       0.99984554    3.1456037e-05
       2.8021489       0.99984308    3.2362095e-05
       2.8249946       0.99984057    3.3292518e-05
       2.8480265       0.99983804    3.4250855e-05
       2.8712461       0.99983546    3.5234464e-05
       2.8946551       0.99983285    3.6248051e-05
       2.9182550       0.99983021    3.7287984e-05
       2.9420472       0.99982752    3.8359773e-05
       2.9660335       0.99982480    3.9458919e-05
       2.9902152       0.99982205    4.0592480e-05
       3.0145942       0.99981925    4.1754638e-05
       3.0391719       0.99981642    4.2953231e-05
       3.0639499       0.99981355    4.4181364e-05
       3.0889300       0.99981064    4.5448864e-05
       3.1141138       0.99980769    4.6747270e-05
       3.1395029       0.99980471    4.8087322e-05
       3.1650989       0.99980169    4.9459376e-05
       3.1909037       0.99979863    5.0875528e-05
       3.2169188       0.99979553    5.2324789e-05
       3.2431460       0.99979239    5.3821963e-05
       3.2695871       0.99978921    5.5353767e-05
       3.2962437       0.99978600    5.6936902e-05
       3.3231177       0.99978274    5.8556110e-05
       3.3502107       0.99977945    6.0228477e-05
       3.3775247       0.99977611    6.1938034e-05
       3.4050613       0.99977275    6.3705708e-05
       3.4328224       0.99976933    6.5512211e-05
       3.4608099       0.99976589    6.7380158e-05
       3.4890255       0.99976240    6.9288318e-05
       3.5174712       0.99975889    7.1263265e-05
       3.5461488       0.99975533    7.3280091e-05
       3.5750602       0.99975174    7.5363932e-05
       3.6042074       0.99974811    7.7490879e-05
       3.6335921       0.99974445    7.9693839e-05
       3.6632164       0.99974075    8.1941815e-05
       3.6930823       0.99973703    8.4267208e-05
       3.7231916       0.99973326    8.6639500e-05
       3.7535465       0.99972948    8.9095849e-05
       3.7841488       0.99972565    9.1602183e-05
       3.8150006       0.99972182    9.4193312e-05
       3.8461039       0.99971793    9.6838274e-05
       3.8774608       0.99971405    9.9574326e-05
       3.9090734       0.99971012    0.00010236800
       3.9409437       0.99970621    0.00010525350
       3.9730738       0.99970224    0.00010820095
       4.0054659       0.99969830    0.00011124727
       4.0381221       0.99969432    0.00011435948
       4.0710445       0.99969037    0.00011757015
       4.1042353       0.99968639    0.00012085129
       4.1376967       0.99968247    0.00012423514
       4.1714310       0.99967852    0.00012769484
       4.2054403       0.99967468    0.00013126424
       4.2397268       0.99967084    0.00013491467
       4.2742929       0.99966720    0.00013867839
       4.3091408       0.99966371    0.00014252830
       4.3442728       0.99966087    0.00014649482
       4.3796912       0.99966133    0.00015055036
       4.4153984       0.99965941    0.00014817432
       4.4513967       0.99964804    0.00015245002
       4.4876885       0.99964295    0.00015685509
       4.5242762       0.99963803    0.00016137163
       4.5611622       0.99963360    0.00016603422
       4.5983489       0.99962929    0.00017081571
       4.6358388       0.99962532    0.00017574736
       4.6736344       0.99962159    0.00018080984
       4.7117381       0.99961838    0.00018603493
       4.7501524       0.99961732    0.00019140005
       4.7888799       0.99962001    0.00019693334
       4.8279232       0.99962632    0.00018968323
       4.8672848       0.99960968    0.00019528547
       4.9069673       0.99959761    0.00020104355
       4.9469733       0.99959217    0.00020697749
       4.9873055       0.99958712    0.00021307854
       5.0279666       0.99958262    0.00021936295
       5.0689591       0.99957844    0.00022583178
       5.1102858       0.99957467    0.00023249736
       5.1519495       0.99957134    0.00023935739
       5.1939528       0.99956849    0.00024641867
       5.2362986       0.99956639    0.00025369109
       5.2789897       0.99956504    0.00026117557
       5.3220288       0.99956579    0.00026888611
       5.3654187       0.99956840    0.00027681666
       5.4091625       0.99960038    0.00028497246
       5.4532629       0.99960250    0.00025157966
       5.4977228       0.99956368    0.00025871035
       5.5425452       0.99955146    0.00026601640
       5.5877330       0.99954279    0.00027354114
       5.6332893       0.99953638    0.00028126232
       5.6792169       0.99953102    0.00028921796
       5.7255190       0.99952625    0.00029737860
       5.7721986       0.99952230    0.00030579313
       5.8192588       0.99951875    0.00031442243
       5.8667027       0.99951603    0.00032331944
       5.9145333       0.99951370    0.00033243796
       5.9627539       0.99951234    0.00034184607
       6.0113677       0.99951140    0.00035148619
       6.0603778       0.99951173    0.00036143765
       6.1097875       0.99951258    0.00037163059
       6.1596000       0.99951515    0.00038211569
       6.2098186       0.99951837    0.00039283793
       6.2604467       0.99952417    0.00040394907
       6.3114875       0.99953087    0.00041533055
       6.3629444       0.99954197    0.00042708871
       6.4148209       0.99955442    0.00043911712
       6.4671203       0.99957652    0.00045155064
       6.5198461       0.99960116    0.00046426589
       6.5730018       0.99974818    0.00047740677
       6.6265908       0.99987610    0.00033109399
       6.6806168       0.99971807    0.00033920120
       6.7350832       0.99967638    0.00034746871
       6.7899937       0.99978075    0.00035597380
       6.8453519       0.99990421    0.00036465004
       6.9011614       0.99987409    0.00012344993
       6.9574259       0.99962959    0.00012669162
       7.0141491       0.99957923    0.00013003752
       7.0713348       0.99953861    0.00013345088
       7.1289867       0.99951031    0.00013696923
       7.1871086       0.99948176    0.00014055702
       7.2457044       0.99945846    0.00014423043
       7.3047779       0.99943475    0.00014797629
       7.3643331       0.99941383    0.00015184472
       7.4243738       0.99939258    0.00015579044
       7.4849040       0.99937302    0.00015986225
       7.5459277       0.99935317    0.00016401646
       7.6074489       0.99933440    0.00016829831
       7.6694717       0.99931538    0.00017266846
       7.7320001       0.99929708    0.00017717417
       7.7950384       0.99927853    0.00018177417
       7.8585906       0.99926048    0.00018651614
       7.9226609       0.99924218    0.00019135832
       7.9872536       0.99922421    0.00019634521
       8.0523729       0.99920601    0.00020143962
       8.1180231       0.99918802    0.00020668781
       8.1842086       0.99916980    0.00021205007
       8.2509337       0.99915171    0.00021756924
       8.3182027       0.99913339    0.00022320258
       8.3860202       0.99911512    0.00022897105
       8.4543906       0.99909662    0.00023486503
       8.5233185       0.99907811    0.00024091818
       8.5928082       0.99905936    0.00024710630
       8.6628646       0.99904055    0.00025346561
       8.7334921       0.99902150    0.00025997056
       8.8046954       0.99900236    0.00026665928
       8.8764792       0.99898298    0.00027350283
       8.9488483       0.99896349    0.00028053662
       9.0218074       0.99894375    0.00028773566
       9.0953613       0.99892387    0.00029513333
       9.1695149       0.99890375    0.00030270722
       9.2442731       0.99888347    0.00031048759
       9.3196408       0.99886294    0.00031845343
       9.3956229       0.99884224    0.00032663081
       9.4722245       0.99882130    0.00033500639
       9.5494506       0.99880017    0.00034360363
       9.6273064       0.99877881    0.00035241486
       9.7057969       0.99875726    0.00036146106
       9.7849273       0.99873551    0.00037067253
       9.8647029       0.99871360    0.00038004959
       9.9451288       0.99869140    0.00038960832
       10.026211       0.99866892    0.00039935195
       10.107953       0.99864614    0.00040928578
       10.190362       0.99862307    0.00041941316
       10.273443       0.99859970    0.00042979231
       10.357202       0.99857602    0.00044042300
       10.441643       0.99855204    0.00045132168
       10.526773       0.99852775    0.00046248223
       10.612597       0.99850317    0.00047392500
       10.699120       0.99847827    0.00048563818
       10.786349       0.99845309    0.00049765212
       10.874289       0.99842758    0.00050994834
       10.962946       0.99840179    0.00052256557
       11.052326       0.99837566    0.00053547761
       11.142434       0.99834926    0.00054872330
       11.233278       0.99832250    0.00056227061
       11.324861       0.99829548    0.00057617427
       11.417192       0.99826810    0.00059039269
       11.510275       0.99824046    0.00060499059
       11.604117       0.99821246    0.00061991551
       11.698725       0.99818423    0.00063523861
       11.794103       0.99815563    0.00065090015
       11.890259       0.99812687    0.00066692310
       11.987199       0.99809775    0.00068327371
       12.084930       0.99806840    0.00070000819
       12.183457       0.99803866    0.00071708472
       12.282788       0.99800867    0.00073436372
       12.382928       0.99797826    0.00075193691
       12.483885       0.99794750    0.00076995403
       12.585665       0.99791629    0.00078833877
       12.688275       0.99788476    0.00080718894
       12.791721       0.99785277    0.00082641921
       12.896010       0.99782052    0.00084617480
       13.001150       0.99778780    0.00086633084
       13.107148       0.99775489    0.00088699214
       13.214009       0.99772152    0.00090806088
       13.321741       0.99768793    0.00092965005
       13.430352       0.99765386    0.00095166013
       13.539849       0.99761954    0.00097405390
       13.650238       0.99758471    0.00099686697
       13.761527       0.99754959     0.0010203025
       13.873723       0.99751393     0.0010441892
       13.986834       0.99747805     0.0010687311
       14.100868       0.99744163     0.0010937413
       14.215831       0.99740507     0.0011194458
       14.331731       0.99736796     0.0011456382
       14.448576       0.99733081     0.0011724483
       14.566374       0.99729311     0.0011997690
       14.685132       0.99725521     0.0012277079
       14.804859       0.99721677     0.0012561805
       14.925561       0.99717815     0.0012852987
       15.047248       0.99713900     0.0013149884
       15.169927       0.99709969     0.0013454631
       15.293606       0.99705987     0.0013765427
       15.418293       0.99701998     0.0014084388
       15.543997       0.99697962     0.0014409737
       15.670725       0.99693933     0.0014743482
       15.798487       0.99689865     0.0015083080
       15.927291       0.99685835     0.0015427036
       16.057145       0.99681752     0.0015776674
       16.188057       0.99677628     0.0016129736
       16.320037       0.99673454     0.0016489479
       16.453092       0.99669253     0.0016856373
       16.587233       0.99665006     0.0017230667
       16.722467       0.99660741     0.0017613777
       16.858803       0.99656436     0.0018004704
       16.996252       0.99652129     0.0018404872
       17.134820       0.99647798     0.0018813329
       17.274519       0.99643491     0.0019231485
       17.415356       0.99639190     0.0019654380
       17.557342       0.99634973     0.0020078504
       17.700486       0.99630681     0.0020504917
       17.844796       0.99626295     0.0020928361
       17.990283       0.99621830     0.0021360904
       18.136956       0.99617270     0.0021803836
       18.284825       0.99612629     0.0022261089
       18.433899       0.99607892     0.0022736696
       18.584189       0.99603220     0.0023229989
       18.735704       0.99598674     0.0023745313
       18.888454       0.99594237     0.0024271781
       19.042450       0.99589963     0.0024810093
       19.197701       0.99585948     0.0025340758
       19.354218       0.99582255     0.0025860242
       19.512011       0.99578443     0.0026358389
       19.671091       0.99574504     0.0026832238
       19.831467       0.99570417     0.0027291330
       19.993151       0.99566184     0.0027735737
       20.156154       0.99561721     0.0028185313
       20.320485       0.99557045     0.0028640359
       20.486156       0.99552203     0.0029102677
       20.653177       0.99547213     0.0029572408
       20.821561       0.99542050     0.0030049712
       20.991317       0.99536742     0.0030534728
       21.162457       0.99531179     0.0031034961
       21.334993       0.99525418     0.0031548241
       21.508935       0.99519483     0.0032082383
       21.684295       0.99513408     0.0032632842
       21.861085       0.99507274     0.0033242935
       22.039316       0.99501067     0.0033890817
       22.219001       0.99495152     0.0034556209
       22.400150       0.99489341     0.0035236324
       22.582776       0.99483629     0.0035923262
       22.766892       0.99477920     0.0036620075
       22.952508       0.99472321     0.0037331896
       23.139637       0.99466725     0.0038057333
       23.328293       0.99461386     0.0038784835
       23.518486       0.99456096     0.0039521445
       23.710230       0.99450784     0.0040245047
       23.903537       0.99445426     0.0040973402
       24.098420       0.99440046     0.0041700171
       24.294892       0.99434618     0.0042435657
       24.492966       0.99429102     0.0043179552
       24.692655       0.99423519     0.0043935127
       24.893972       0.99417924     0.0044703615
       25.096930       0.99412278     0.0045485113
       25.301543       0.99406667     0.0046281388
       25.507824       0.99401012     0.0047091364
       25.715787       0.99395453     0.0047916134
       25.925445       0.99389856     0.0048754980
       26.136813       0.99384420     0.0049608810
       26.349904       0.99378952     0.0050477145
       26.564732       0.99373829     0.0051360255
       26.781312       0.99368689     0.0052258291
       26.999657       0.99364348     0.0053132780
       27.219783       0.99360016     0.0054020304
       27.441703       0.99355711     0.0054837973
       27.665432       0.99351382     0.0055666019
       27.890986       0.99346618     0.0056389600
       28.118378       0.99341802     0.0057123427
       28.347625       0.99336368     0.0057865858
       28.578740       0.99330867     0.0058618762
       28.811740       0.99324976     0.0059380658
       29.046639       0.99319010     0.0060153256
       29.283454       0.99312763     0.0060935148
       29.522199       0.99306424     0.0061728281
       29.762891       0.99299782     0.0062533546
       30.005545       0.99293058     0.0063352942
       30.250177       0.99286187     0.0064201394
       30.496804       0.99279239     0.0065061882
       30.745441       0.99272199     0.0065933237
       30.996106       0.99265072     0.0066816903
       31.248814       0.99257815     0.0067711754
       31.503583       0.99250463     0.0068619241
       31.760428       0.99242965     0.0069538391
       32.019368       0.99235360     0.0070470436
       32.280419       0.99227589     0.0071414352
       32.543598       0.99219688     0.0072371431
       32.808923       0.99211571     0.0073340687
       33.076411       0.99203246     0.0074323482
       33.346079       0.99194524     0.0075319089
       33.617947       0.99185685     0.0076361204
       33.892031       0.99176719     0.0077494251
       34.168349       0.99167805     0.0078646911
       34.446920       0.99159129     0.0079821756
       34.727763       0.99150470     0.0081014447
       35.010895       0.99141934     0.0082224863
       35.296335       0.99133387     0.0083453520
       35.584103       0.99124888     0.0084700262
       35.874217       0.99116390     0.0085965819
       36.166696       0.99107944     0.0087250148
       36.461559       0.99099539     0.0088549359
       36.758827       0.99091230     0.0089861619
       37.058518       0.99082864     0.0091187148
       37.360653       0.99074449     0.0092524231
       37.665250       0.99066009     0.0093880951
       37.972331       0.99057556     0.0095257470
       38.281916       0.99049108     0.0096654121
       38.594025       0.99040672     0.0098071167
       38.908678       0.99032266     0.0099509015
       39.225897       0.99023886      0.010096805
       39.545702       0.99015573      0.010244845
       39.868114       0.99007310      0.010395072
       40.193155       0.98999200      0.010547482
       40.520846       0.98991199      0.010702139
       40.851209       0.98983434      0.010856448
       41.184265       0.98975823      0.011011178
       41.520036       0.98968133      0.011166408
       41.858545       0.98960372      0.011322795
       42.199813       0.98952629      0.011481332
       42.543864       0.98944877      0.011642132
       42.890720       0.98937278      0.011805124
       43.240404       0.98929740      0.011970446
       43.592939       0.98922459      0.012138029
       43.948348       0.98915282      0.012308019
       44.306655       0.98908533      0.012480331
       44.667883       0.98901955      0.012655130
       45.032056       0.98896175      0.012832303
       45.399198       0.98890702      0.013012038
       45.769333       0.98887390      0.013191989
       46.142486       0.98884844      0.013373808
       46.518681       0.98881822      0.013507381
       46.897943       0.98878715      0.013627942
       47.280298       0.98873811      0.013749534
       47.665769       0.98868476      0.013872261
       48.054384       0.98861920      0.013996020
       48.446167       0.98855094      0.014120933
       48.841143       0.98847575      0.014246933
       49.239341       0.98839905      0.014374116
       49.640784       0.98831662      0.014502350
       50.045501       0.98823294      0.014631784
       50.453517       0.98814417      0.014762312
       50.864859       0.98805428      0.014894075
       51.279556       0.98795978      0.015026969
       51.697633       0.98786422      0.015161125
       52.119119       0.98776436      0.015296361
       52.544041       0.98766347      0.015432882
       52.972427       0.98755848      0.015570576
       53.404306       0.98745248      0.015709588
       53.839707       0.98734250      0.015849746
       54.278657       0.98723144      0.015991239
       54.721185       0.98711673      0.016133892
       55.167322       0.98700080      0.016277906
       55.617096       0.98688137      0.016423155
       56.070536       0.98676061      0.016569782
       56.527674       0.98663664      0.016717599
       56.988539       0.98651124      0.016866809
       57.453161       0.98638281      0.017017294
       57.921571       0.98625285      0.017169196
       58.393800       0.98612014      0.017322373
       58.869879       0.98598591      0.017476988
       59.349839       0.98584957      0.017632923
       59.833713       0.98571230      0.017790050
       60.321531       0.98557633      0.017947156
       60.813327       0.98543798      0.018104074
       61.309132       0.98529397      0.018255184
       61.808979       0.98514701      0.018407555
       62.312902       0.98499323      0.018561146
       62.820933       0.98483669      0.018716046
       63.333106       0.98467516      0.018872261
       63.849455       0.98451071      0.019029789
       64.370013       0.98434146      0.019188598
       64.894816       0.98416895      0.019348740
       65.423897       0.98399131      0.019510195
       65.957292       0.98380818      0.019674340
       66.495035       0.98361536      0.019842860
       67.037163       0.98342178      0.020016386
       67.583710       0.98322931      0.020198630
       68.134713       0.98303660      0.020382557
       68.690209       0.98284555      0.020568110
       69.250234       0.98265378      0.020755424
       69.814824       0.98246239      0.020944476
       70.384018       0.98227571      0.021133851
       70.957852       0.98209738      0.021322761
       71.536364       0.98191341      0.021500465
       72.119593       0.98172242      0.021662119
       72.707578       0.98152262      0.021824959
       73.300355       0.98131233      0.021989018
       73.897966       0.98109665      0.022154284
       74.500449       0.98087517      0.022320777
       75.107844       0.98065461      0.022486943
       75.720191       0.98043507      0.022652735
       76.337530       0.98020460      0.022806154
       76.959903       0.97996363      0.022947969
       77.587350       0.97970754      0.023090701
       78.219912       0.97943795      0.023234260
       78.857631       0.97915488      0.023378844
       79.500550       0.97886039      0.023524311
       80.148710       0.97854394      0.023670748
       80.802155       0.97821057      0.023817997
       81.460927       0.97785344      0.023993765
       82.125070       0.97747902      0.024188081
       82.794628       0.97712171      0.024410610
       83.469644       0.97677166      0.024650234
       84.150164       0.97643306      0.024892107
       84.836232       0.97609775      0.025136443
       85.527894       0.97577297      0.025382973
       86.225195       0.97545042      0.025631981
       86.928180       0.97515974      0.025870539
       87.636897       0.97487981      0.026106261
       88.351392       0.97457267      0.026285631
       89.071713       0.97425294      0.026445060
       89.797906       0.97390431      0.026605766
       90.530020       0.97354294      0.026767164
       91.268102       0.97316013      0.026929827
       92.012202       0.97276711      0.027093152
       92.762369       0.97235602      0.027257814
       93.518651       0.97193567      0.027423117
       94.281100       0.97149807      0.027589866
       95.049764       0.97105138      0.027757232
       95.824696       0.97058686      0.027926009
       96.605945       0.97011306      0.028095379
       97.393564       0.96962078      0.028266110
       98.187605       0.96911897      0.028437403
       98.988119       0.96859831      0.028611823
       99.795159       0.96806793      0.028786999
       100.60878       0.96751879      0.028963624
       101.42903       0.96695972      0.029140808
       102.25597       0.96638045      0.029319689
       103.08966       0.96579089      0.029499119
       103.93014       0.96518660      0.029680198
       104.77747       0.96457192      0.029861716
       105.63171       0.96393676      0.030023840
       106.49292       0.96328967      0.030185550
       107.36114       0.96259398      0.030332909
       108.23645       0.96188419      0.030479954
       109.11889       0.96112643      0.030628624
       110.00852       0.96035045      0.030777047
       110.90541       0.95950250      0.030927143
       111.80961       0.95863586      0.031083593
       112.72119       0.95772447      0.031301639
       113.64019       0.95679670      0.031523190
       114.56669       0.95585511      0.031762443
       115.50074       0.95489296      0.032003419
       116.44241       0.95389442      0.032246435
       117.39175       0.95286610      0.032491160
       118.34883       0.95176370      0.032737716
       119.31372       0.95062197      0.033003196
       120.28647       0.94938183      0.033341966
       121.26716       0.94813079      0.033712509
       122.25584       0.94690212      0.034187623
       123.25258       0.94565804      0.034669662
       124.25744       0.94441497      0.035158265
       125.27050       0.94312636      0.035653973
       126.29182       0.94175212      0.036156468
       127.32147       0.94036104      0.036721890
       128.35951       0.93896639      0.037431916
       129.40601       0.93757273      0.038155914
       130.46104       0.93621260      0.038895855
       131.52468       0.93483793      0.039649720
       132.59699       0.93345864      0.040418589
       133.67804       0.93205811      0.041202003
       134.76790       0.93063901      0.042000967
       135.86665       0.92918611      0.042815085
       136.97436       0.92769398      0.043645247
       138.09110       0.92617805      0.044523553
       139.21694       0.92463943      0.045465868
       140.35196       0.92308439      0.046431959
       141.49624       0.92151626      0.047424307
       142.64984       0.91992592      0.048437595
       143.81285       0.91831411      0.049472736
       144.98535       0.91666799      0.050529860
       146.16740       0.91498650      0.051609616
       147.35909       0.91325518      0.052712501
       148.56049       0.91147346      0.053838865
       149.77169       0.90957838      0.054998140
       150.99277       0.90757643      0.056189611
       152.22379       0.90557040      0.057589083
       153.46486       0.90355410      0.059165552
       154.71604       0.90156364      0.060787102
       155.97743       0.89958311      0.062450825
       157.24910       0.89760653      0.064162715
       158.53114       0.89562098      0.065918481
       159.82362       0.89362137      0.067725777
       161.12665       0.89159921      0.069578792
       162.44030       0.88950059      0.071501958
       163.76466       0.88734283      0.073481206
       165.09982       0.88518972      0.075609367
       166.44586       0.88301958      0.077833115
       167.80288       0.88087694      0.080130639
       169.17096       0.87872568      0.082486815
       170.55019       0.87655956      0.084922425
       171.94067       0.87436498      0.087419241
       173.34249       0.87213613      0.090000939
       174.75573       0.86987043      0.092646205
       176.18050       0.86752663      0.095382970
       177.61688       0.86513093      0.098185980
       179.06498       0.86246604       0.10127595
       180.52487       0.85969482       0.10448827
       181.99668       0.85707012       0.10823467
       183.48048       0.85444320       0.11216280
       184.97638       0.85210513       0.11627662
       186.48447       0.84979149       0.12049571
       188.00486       0.84761800       0.12491605
       189.53765       0.84543842       0.12944616
       191.08293       0.84332964       0.13419728
       192.64081       0.84120247       0.13906318
       194.21139       0.83919138       0.14435783
       195.79478       0.83716575       0.14979398
       197.39107       0.83554780       0.15574428
       199.00038       0.83393987       0.16184624
       200.62281       0.83281260       0.16829231
       202.25847       0.83169847       0.17488295
       203.90747       0.83127665       0.18185113
       205.56990       0.83088271       0.18896899
       207.24590       0.83110728       0.19618304
       208.93555       0.83138365       0.20355695
       210.63898       0.83232482       0.21130376
       212.35630       0.83338664       0.21922926
       214.08762       0.83567540       0.22756920
       215.83306       0.83813337       0.23600257
       217.59272       0.84166888       0.24371558
       219.36674       0.84536935       0.25156095
       221.15521       0.84965350       0.25935565
       222.95827       0.85455279       0.26733003
       224.77603       0.86283400       0.27561154
       226.60860       0.87131653       0.28310577
       228.45612       0.87990923       0.28553454
       230.31870       0.88822326       0.28793007
       232.19647       0.89442779       0.29009352
       234.08954       0.90064464       0.29227235
       235.99805       0.90641822       0.29446885
       237.92212       0.91239184       0.29668087
       239.86188       0.91867917       0.29891002
       241.81745       0.92504158       0.30085885
       243.78896       0.93129894       0.30193022
       245.77655       0.93752703       0.30297857
       247.78034       0.94340711       0.30398790
       249.80047       0.94940900       0.30499281
       251.83707       0.95549312       0.30600836
       253.89028       0.96214918       0.30702003
       255.96022       0.96985113       0.30804104
       258.04704       0.97820595       0.30823389
       260.15087       0.98763911       0.30685215
       262.27186       0.99634203       0.30401901
       264.41013        1.0036143       0.29872706
       266.56584        1.0101546       0.29346704
       268.73913        1.0154502       0.28835014
       270.93013        1.0204257       0.28309305
       273.13900        1.0248956       0.27770241
       275.36588        1.0289428       0.27217894
       277.61091        1.0324163       0.26652940
       279.87424        1.0361334       0.26097169
       282.15603        1.0401237       0.25554885
       284.45642        1.0438975       0.24884865
       286.77557        1.0474357       0.24079225
       289.11362        1.0494049       0.23205951
       291.47073        1.0498525       0.22265816
       293.84707        1.0491180       0.21366343
       296.24277        1.0473378       0.20499311
       298.65801        1.0447661       0.19672534
       301.09294        1.0415465       0.18873002
       303.54772        1.0375654       0.18113005
       306.02252        1.0330025       0.17375613
       308.51749        1.0275681       0.16677119
       311.03281        1.0215128       0.15997217
       313.56863        1.0140270       0.15393728
       316.12512        1.0056146       0.14828433
       318.70246       0.99760008       0.14525392
       321.30081       0.98970341       0.14357638
       323.92034       0.98265034       0.14194514
       326.56123       0.97590936       0.14030461
       329.22366       0.96893952       0.13871203
       331.90778       0.96177444       0.13710627
       334.61380       0.95456568       0.13636306
       337.34187       0.94723245       0.13592356
       340.09219       0.94039869       0.13587181
       342.86492       0.93362373       0.13593647
       345.66027       0.92699051       0.13600997
       348.47840       0.92028882       0.13607433
       351.31951       0.91303682       0.13614830
       354.18379       0.90552025       0.13621236
       357.07142       0.89758022       0.13725229
       359.98258       0.88940578       0.13850763
       362.91749       0.88188161       0.14093283
       365.87632       0.87433441       0.14360193
       368.85927       0.86738167       0.14632454
       371.86655       0.86038399       0.14909576
       374.89834       0.85334140       0.15192233
       377.95485       0.84615699       0.15479909
       381.03628       0.83907531       0.15833975
       384.14283       0.83186209       0.16199745
       387.27471       0.82515043       0.16602267
       390.43212       0.81833281       0.17014152
       393.61528       0.81170385       0.17438401
       396.82438       0.80494602       0.17870911
       400.05966       0.79838119       0.18361741
       403.32130       0.79169538       0.18862992
       406.60954       0.78548564       0.19402036
       409.92459       0.77918091       0.19952200
       413.26667       0.77339345       0.20522283
       413.267      0.750000      0.295000
       416.740      0.742000      0.296000
       420.271      0.733000      0.297000
       423.863      0.724000      0.298000
       427.517      0.712000      0.301000
       431.235      0.700000      0.306000
       435.018      0.690000      0.310000
       438.867      0.679000      0.318000
       442.786      0.671000      0.322000
       446.775      0.656000      0.328000
       450.836      0.643000      0.336000
       454.972      0.631000      0.346000
       459.185      0.619000      0.357000
       462.612      0.610000      0.365000
       466.090      0.600000      0.375000
       469.621      0.591000      0.383000
       473.206      0.580000      0.394000
       476.846      0.571000      0.404000
       480.543      0.560000      0.415000
       484.297      0.548000      0.429000
       488.110      0.537000      0.444000
       491.984      0.528000      0.461000
       495.920      0.521000      0.476000
       499.919      0.511000      0.494000
       503.984      0.503000      0.513000
       508.115      0.497000      0.534000
       512.314      0.491000      0.554000
       516.583      0.487000      0.575000
       520.924      0.483000      0.598000
       525.339      0.484000      0.621000
       529.829      0.486000      0.643000
       534.397      0.490000      0.663000
       539.043      0.494000      0.679000
       543.772      0.494000      0.695000
       548.584      0.493000      0.712000
       553.482      0.492000      0.730000
       558.468      0.491000      0.751000
       563.545      0.491000      0.773000
       568.716      0.492000      0.796000
       573.981      0.496000      0.819000
       579.346      0.499000      0.842000
       584.811      0.503000      0.866000
       590.381      0.508000      0.892000
       596.058      0.517000      0.918000
       601.845      0.525000      0.943000
       607.745      0.537000      0.969000
       613.762      0.549000      0.994000
       619.900      0.563000       1.02000
       626.162      0.579000       1.05000
       632.551      0.599000       1.07000
       639.072      0.621000       1.09000
       645.729      0.642000       1.11000
       652.526      0.665000       1.13000
       659.468      0.688000       1.15000
       666.559      0.712000       1.16000
       673.804      0.738000       1.18000
       681.209      0.766000       1.19000
       688.778      0.796000       1.20000
       696.517      0.822000       1.20000
       704.432      0.847000       1.21000
       712.529      0.874000       1.21000
       720.814      0.900000       1.20000
       729.294      0.922000       1.20000
       737.976      0.944000       1.19000
       746.867      0.959000       1.18000
       755.976      0.973000       1.17000
       765.309      0.980000       1.15000
       774.875      0.981000       1.14000
       784.684      0.976000       1.13000
       794.744      0.966000       1.12000
       805.065      0.951000       1.12000
       815.658      0.933000       1.13000
       826.533      0.917000       1.14000
       837.703      0.904000       1.17000
       849.178      0.900000       1.20000
       860.972      0.901000       1.23000
       873.099      0.906000       1.25000
       885.571      0.913000       1.28000
       898.406      0.923000       1.32000
       911.618      0.941000       1.35000
       925.224      0.962000       1.37000
       939.242      0.984000       1.40000
       953.692       1.01000       1.42000
       968.594       1.04000       1.44000
       983.968       1.07000       1.46000
       999.839       1.10000       1.47000
       1016.23       1.13000       1.48000
       1033.17       1.16000       1.48000
       1041.85       1.18000       1.48000
       1050.68       1.20000       1.48000
       1059.66       1.21000       1.48000
       1068.79       1.22000       1.48000
       1078.09       1.24000       1.47000
       1087.54       1.25000       1.46000
       1097.17       1.26000       1.45000
       1106.96       1.27000       1.44000
       1116.94       1.28000       1.43000
       1127.09       1.28000       1.42000
       1137.43       1.29000       1.41000
       1147.96       1.29000       1.39000
       1158.69       1.28000       1.38000
       1169.62       1.28000       1.36000
       1180.76       1.26000       1.34000
       1192.12       1.24000       1.33000
       1203.69       1.22000       1.33000
       1215.49       1.19000       1.33000
       1227.52       1.16000       1.33000
       1239.80       1.13000       1.34000
       1252.32       1.11000       1.36000
       1265.10       1.09000       1.38000
       1278.14       1.07000       1.41000
       1291.46       1.05000       1.44000
       1305.05       1.04000       1.47000
       1318.94       1.03000       1.50000
       1333.12       1.03000       1.52000
       1347.61       1.02000       1.55000
       1362.42       1.02000       1.57000
       1377.56       1.01000       1.60000
       1393.03       1.02000       1.63000
       1408.86       1.01000       1.65000
       1425.06      0.999000       1.67000
       1441.63      0.986000       1.70000
       1458.59      0.973000       1.73000
       1475.95      0.956000       1.76000
       1493.73      0.943000       1.81000
       1511.95      0.935000       1.86000
       1530.62      0.935000       1.91000
       1549.75      0.937000       1.95000
       1569.37      0.932000       2.00000
       1589.49      0.930000       2.06000
       1610.13      0.937000       2.12000
       1631.32      0.950000       2.18000
       1653.07      0.964000       2.24000
       1675.41      0.979000       2.29000
       1698.36      0.993000       2.36000
       1721.94       1.01000       2.43000
       1746.20       1.04000       2.49000
       1771.14       1.06000       2.56000
       1796.81       1.09000       2.63000
       1823.24       1.12000       2.70000
       1850.45       1.16000       2.78000
       1878.48       1.21000       2.87000
       1907.38       1.26000       2.95000
       1937.19       1.31000       3.04000
       1967.94       1.38000       3.14000
       1999.68       1.47000       3.24000
       2032.46       1.58000       3.33000
       2066.33       1.70000       3.42000
       2101.36       1.83000       3.52000
       2137.59       2.00000       3.61000
       2175.09       2.20000       3.67000
       2213.93       2.43000       3.70000
       2254.18       2.68000       3.68000
       2295.93       2.92000       3.58000
       2339.25       3.11000       3.43000
       2384.23       3.27000       3.27000
       2430.98       3.38000       3.05000
       2479.60       3.40000       2.85000
       2530.20       3.37000       2.68000
       2582.92       3.33000       2.57000
       2637.87       3.29000       2.48000
       2695.22       3.24000       2.41000
       2755.11       3.19000       2.35000
       2817.73       3.13000       2.32000
       2883.26       3.07000       2.31000
       2951.90       3.01000       2.33000
       3023.90       2.97000       2.37000
       3099.50       2.95000       2.43000
       3138.73       2.95000       2.46000
       3178.97       2.96000       2.50000
       3220.26       2.98000       2.53000
       3262.63       2.99000       2.56000
       3306.13       3.02000       2.60000
       3350.81       3.05000       2.62000
       3396.71       3.09000       2.65000
       3443.89       3.13000       2.67000
       3492.39       3.18000       2.69000
       3542.29       3.24000       2.70000
       3593.62       3.32000       2.70000
       3646.47       3.39000       2.66000
       3700.90       3.43000       2.60000
       3756.97       3.45000       2.55000
       3814.77       3.45000       2.49000
       3874.38       3.43000       2.45000
       3935.87       3.41000       2.43000
       3999.35       3.39000       2.41000
       4064.92       3.37000       2.42000
       4132.67       3.35000       2.42000
       4202.71       3.33000       2.43000
       4275.17       3.32000       2.45000
       4350.18       3.31000       2.47000
       4427.86       3.30000       2.49000
       4508.36       3.31000       2.53000
       4591.85       3.31000       2.55000
       4678.49       3.32000       2.59000
       4768.46       3.34000       2.62000
       4861.96       3.35000       2.64000
       4959.20       3.38000       2.68000
       5060.41       3.42000       2.71000
       5165.83       3.45000       2.72000
       5275.75       3.48000       2.72000
       5390.44       3.50000       2.72000
       5510.22       3.50000       2.73000
       5635.45       3.49000       2.75000
       5766.51       3.51000       2.81000
       5903.81       3.54000       2.84000
       6047.81       3.57000       2.86000
       6199.00       3.60000       2.89000
       6357.95       3.65000       2.92000
       6525.26       3.70000       2.94000
       6701.62       3.76000       2.95000
       6887.78       3.82000       2.91000
       7084.57       3.85000       2.86000
       7292.94       3.84000       2.78000
       7513.94       3.78000       2.72000
       7748.75       3.67000       2.68000
       7998.71       3.56000       2.73000
       8265.33       3.48000       2.79000
       8550.34       3.38000       2.85000
       8855.71       3.29000       2.96000
       9183.70       3.20000       3.07000
       9536.92       3.12000       3.24000
       9918.40       3.05000       3.39000
       10331.7       3.00000       3.64000
       10780.9       3.02000       3.83000
       11270.9       3.05000       4.04000
       11807.6       3.11000       4.19000
       12398.0       3.14000       4.32000
       12651.0       3.15000       4.36000
       12914.6       3.15000       4.41000
       13189.4       3.15000       4.43000
       13476.1       3.14000       4.45000
       13775.6       3.11000       4.44000
       14088.6       3.05000       4.42000
       14250.6       3.00000       4.39000
       14416.3       2.92000       4.37000
       14585.9       2.80000       4.33000
       14759.5       2.62000       4.37000
       14937.3       2.47000       4.47000
       15119.5       2.36000       4.61000
       15497.5       2.22000       4.85000
       15894.9       2.12000       5.05000
       16313.2       1.97000       5.27000
       16754.1       1.83000       5.52000
       17219.4       1.70000       5.81000
       17711.4       1.59000       6.13000
       18232.4       1.52000       6.45000
       18784.8       1.45000       6.78000
       19371.9       1.36000       7.14000
       19996.8       1.28000       7.52000
       20663.3       1.21000       7.96000
       21375.9       1.18000       8.44000
       22139.3       1.20000       8.94000
       22959.3       1.23000       9.45000
       23842.3       1.30000       9.98000
       24796.0       1.40000       10.5000
       25829.2       1.54000       11.1000
       26952.2       1.69000       11.6000
       28177.3       1.82000       12.1000
       29519.0       1.92000       12.6000
       30995.0       1.94000       13.2000
       32626.3       1.86000       13.9000
       34438.9       1.82000       14.7000
       36464.7       1.71000       15.7000
       38743.8       1.72000       16.9000
       41326.7       1.83000       18.3000
       49592.0       2.56000       22.4000
       61990.0       3.87000       28.3000
       68877.8       4.72000       31.5000
       77487.5       5.92000       35.3000
       88557.1       7.58000       40.2000
       103317.       10.1000       46.4000
       123980.       14.1000       54.7000
       137756.       17.0000       60.0000
       154975.       20.9000       66.3000
       177114.       26.5000       73.8000
       206633.       34.5000       82.9000
       247960.       46.5000       93.7000
