; From SOPRA S.A. http://www.sopra-sa.com/indices.htm
; Filename    Symbol               Range (nm)     Description
; SIO2        SiO2                163     2066    Silicon Dioxide
; lambda/um       n         k
0.16314  1.653000  0.000000
0.16531  1.642500  0.000000
0.16755  1.633000  0.000000
0.16984  1.624250  0.000000
0.17220  1.616000  0.000000
0.17463  1.607851  0.000000
0.17712  1.600000  0.000000
0.17969  1.592493  0.000000
0.18233  1.585387  0.000000
0.18505  1.578792  0.000000
0.18786  1.572704  0.000000
0.19075  1.567000  0.000000
0.19373  1.561560  0.000000
0.19680  1.556440  0.000000
0.19998  1.551777  0.000000
0.20325  1.547434  0.000000
0.20664  1.543000  0.000000
0.21014  1.538200  0.000000
0.21377  1.534400  0.000000
0.21752  1.530700  0.000000
0.22140  1.527200  0.000000
0.22543  1.523800  0.000000
0.22960  1.520500  0.000000
0.23393  1.517400  0.000000
0.23843  1.514300  0.000000
0.24311  1.511400  0.000000
0.24797  1.508600  0.000000
0.25303  1.505800  0.000000
0.25830  1.503200  0.000000
0.26380  1.500600  0.000000
0.26953  1.498200  0.000000
0.27552  1.495800  0.000000
0.28178  1.493500  0.000000
0.28834  1.491300  0.000000
0.29520  1.489200  0.000000
0.30240  1.487100  0.000000
0.30996  1.485100  0.000000
0.31791  1.483200  0.000000
0.32628  1.481400  0.000000
0.33510  1.479600  0.000000
0.34440  1.477900  0.000000
0.35424  1.476200  0.000000
0.36466  1.474600  0.000000
0.37571  1.473000  0.000000
0.38745  1.471600  0.000000
0.39995  1.470100  0.000000
0.41328  1.468700  0.000000
0.42754  1.467400  0.000000
0.44280  1.466100  0.000000
0.45920  1.464900  0.000000
0.47687  1.463700  0.000000
0.49594  1.462600  0.000000
0.51660  1.461400  0.000000
0.53907  1.460400  0.000000
0.56357  1.459400  0.000000
0.59041  1.458400  0.000000
0.61993  1.457400  0.000000
0.65255  1.456500  0.000000
0.68881  1.455600  0.000000
0.72932  1.454700  0.000000
0.77491  1.453800  0.000000
0.82657  1.452900  0.000000
0.88561  1.452000  0.000000
0.95373  1.451000  0.000000
1.03321  1.450000  0.000000
1.12714  1.448900  0.000000
1.23985  1.447600  0.000000
1.37761  1.446040  0.000000
1.54981  1.444030  0.000000
1.77122  1.441240  0.000000
2.06642  1.437090  0.000000
