;UO 
;UO Ag.ASC: Values of n and k for polycrystalline silver from various
;UO references in HOCI (pg. 353).  References are 14, 28, 33, 35.
;UO 
;UO Copyright (c) 1995 the Optical Society of America.  Contains data
;UO from HANDBOOK OF OPTICAL CONSTANTS IN SOLIDS edited by Edward D.
;UO Palik. Copyright (c) 1985 by Academic Press, Inc. Reproduced by
;UO permission of the publisher.
;UO ----------------------------------------------------------------
;UO       eV             cm-1          um             n           k  
;UO ----------------------------------------------------------------
;N  5
;L  Energy[eV]  Wavelength[cm-1]  Wavelength[um]  n  k  
  10000. 80655000. 0.0001240  0.9990 1.29E-6
   8000. 64524000. 0.0001550   1.000 2.92E-6
   6000. 48393000. 0.0002066   1.002 8.36E-6
   5000. 40328000. 0.0002480   1.001 1.52E-5
   4500. 36295000. 0.0002755   1.001 2.21E-5
   4000. 32262000. 0.0003099   1.003 3.57E-5
   3600. 29036000. 0.0003444   1.003 3.24E-5
   3500. 28229000. 0.0003542   1.003 1.72E-5
   3000. 24197000. 0.0004133   1.001 1.43E-5
   2500. 20164000. 0.0004959   1.001 2.40E-5
   2000. 16131000. 0.0006199   1.001 4.72E-5
   1500. 12098000. 0.0008265   0.999 1.21E-4
   1000. 8065500. 0.001240   0.998 5.23E-4
    800. 6452400. 0.001550   0.997 1.08E-3
    740. 5968500. 0.001675   0.998 1.42E-3
    600. 4839300. 0.002066   0.997 2.69E-3
    500. 4032800. 0.002480   0.997 4.57E-3
    400. 3226200. 0.003099   0.998 8.82E-3
    370. 2984200. 0.003351   1.007 8.23E-3
    350. 2822900. 0.003542   1.001 1.68E-3
    300. 2419700. 0.004133   0.996 2.32E-3
    280. 2258300. 0.004428   0.994 2.70E-3
    260. 2097000. 0.004768   0.992 3.11E-3
    240. 1935700. 0.005166   0.989 3.50E-3
    220. 1774400. 0.005635   0.987 3.45E-3
    200. 1613100. 0.006199   0.982 3.77E-3
    180. 1451800. 0.006888   0.978 4.31E-3
    170. 1371100. 0.007293   0.973 4.42E-3
    160. 1290500. 0.007749   0.968 4.38E-3
    150. 1209800. 0.008265   0.963 4.07E-3
    140. 1129200. 0.008856   0.955 3.54E-3
    130. 1048500. 0.009537   0.943 3.66E-3
    120. 967860. 0.01033   0.926 6.22E-3
    110. 887200. 0.01127   0.902 1.72E-2
    105. 846880. 0.01181   0.890 2.61E-2
    100. 806550. 0.01240   0.876 3.82E-2
     95. 766220. 0.01305   0.861 5.65E-2
     90. 725900. 0.01378   0.849 8.24E-2
     85. 685570. 0.01459   0.846   0.111
     80. 645240. 0.01550   0.848   0.139
     78. 629110. 0.01589   0.851   0.149
     76. 612980. 0.01631   0.853   0.158
     74. 596850. 0.01675   0.853   0.166
     72. 580720. 0.01722   0.851   0.181
     70. 564590. 0.01771   0.859   0.197
     68. 548450. 0.01823   0.871   0.208
     66. 532320. 0.01878   0.883   0.211
     64. 516190. 0.01937   0.885   0.210
     62. 500060. 0.02000   0.881   0.211
     60. 483930. 0.02066   0.873   0.221
     58. 467800. 0.02138   0.868   0.237
     56. 451670. 0.02214   0.871   0.259
     54. 435540. 0.02296   0.885   0.274
     53. 427470. 0.02339   0.890   0.275
     52. 419410. 0.02384   0.889   0.276
     51. 411340. 0.02431   0.886   0.281
     50. 403280. 0.02480   0.884   0.290
     49. 395210. 0.02530   0.885   0.300
     48. 387140. 0.02583   0.888   0.309
     47. 379080. 0.02638   0.893   0.317
     46. 371010. 0.02695   0.896   0.323
     44. 354880. 0.02818   0.899   0.334
     42. 338750. 0.02952   0.897   0.349
     40. 322620. 0.03099   0.896   0.368
     39. 314550. 0.03179   0.895   0.378
     38. 306490. 0.03263   0.892   0.388
     37. 298420. 0.03351   0.885   0.400
     36. 290360. 0.03444   0.876   0.418
     35. 282290. 0.03542   0.865   0.454
     34. 274230. 0.03646   0.879   0.489
     33. 266160. 0.03757   0.899   0.514
     32. 258100. 0.03874   0.921   0.528
     31. 250030. 0.03999   0.932   0.534
     30. 241970. 0.04132   0.931   0.541
     29. 233900. 0.04275   0.919   0.557
    28.5 229870. 0.04350   0.911   0.572
     28. 225830. 0.04428   0.902   0.590
    27.5 221800. 0.04508   0.851   0.616
     27. 217770. 0.04592   0.886   0.650
     27. 217770. 0.04592   0.882   0.399
    26.5 213740. 0.04679   0.886   0.421
     26. 209700. 0.04769   0.887   0.444
    25.5 205670. 0.04862   0.891   0.468
    24.5 197600. 0.05061   0.906   0.522
    23.5 189540. 0.05276   0.943   0.584
     23. 185510. 0.05391   0.980   0.614
    22.5 181470. 0.05510   1.029   0.624
     22. 177440. 0.05636   1.075   0.615
    21.5 173410. 0.05767   1.104   0.584
     21. 169380. 0.05904   1.109   0.561
    20.5 165340. 0.06048   1.105   0.549
     20. 161310. 0.06199   1.098   0.548
     19. 153240. 0.06526   1.096   0.565
     18. 145180. 0.06888   1.101   0.593
     17. 137110. 0.07293   1.121   0.635
     16. 129050. 0.07749   1.167   0.676
    15.5 125020. 0.07999   1.202   0.691
     15. 120980. 0.08266   1.243   0.693
    14.5 116950. 0.08551   1.281   0.679
     14. 112920. 0.08856   1.308   0.656
    13.5 108880. 0.09184   1.322   0.628
     13. 104850. 0.09537   1.322   0.603
    12.5 100820. 0.09919   1.315   0.588
    12.1  97590.  0.1025   1.308   0.581
    11.8  95170.  0.1051   1.304   0.578
    11.5  92750.  0.1078   1.300   0.573
    11.2  90330.  0.1107   1.293   0.566
    10.9  87910.  0.1137   1.280   0.560
    10.6  85490.  0.1170   1.265   0.560
    10.3  83070.  0.1204   1.252   0.564
    10.0  80650.  0.1240   1.241   0.568
     9.7  78230.  0.1278   1.229   0.566
     9.2  74200.  0.1348   1.182   0.550
     9.0  72590.  0.1378   1.149   0.552
     8.8  70980.  0.1409   1.112   0.563
     8.6  69360.  0.1442   1.073   0.581
     8.4  67750.  0.1476   1.032   0.610
     8.2  66140.  0.1512   0.993   0.653
     8.0  64520.  0.1550   0.962   0.706
     7.8  62910.  0.1590   0.940   0.770
     7.6  61300.  0.1631   0.935   0.832
     7.4  59680.  0.1675   0.936   0.892
     7.2  58070.  0.1722   0.942   0.951
     7.0  56460.  0.1771   0.953    1.01
     6.8  54840.  0.1823   0.969    1.07
     6.6  53230.  0.1879   0.995    1.13
     6.4  51620.  0.1937   1.028    1.18
     6.3  50810.  0.1968   1.048    1.21
     6.2  50010.  0.2000   1.072    1.24
     6.1  49200.  0.2033   1.098    1.26
     6.0  48390.  0.2066   1.125    1.27
     5.8  46780.  0.2138   1.173    1.29
     5.6  45170.  0.2214   1.208    1.30
     5.4  43550.  0.2296   1.238    1.31
     5.2  41940.  0.2384   1.265    1.33
     5.0  40330.  0.2480   1.298    1.35
     4.9  39520.  0.2530   1.320    1.35
     4.8  38710.  0.2583   1.343    1.35
     4.7  37910.  0.2638   1.372    1.35
     4.6  37100.  0.2695   1.404    1.33
     4.5  36290.  0.2755   1.441    1.31
     4.4  35490.  0.2818   1.476    1.26
     4.3  34680.  0.2883   1.502    1.19
     4.2  33880.  0.2952   1.519    1.08
    4.15  33470.  0.2988   1.522   0.992
     4.1  33070.  0.3024   1.496   0.882
    4.05  32670.  0.3061   1.432   0.766
     4.0  32260.  0.3100   1.323   0.647
    3.98  32100.  0.3115   1.246   0.586
    3.95  31860.  0.3139   1.149   0.540
    3.93  31700.  0.3155   1.044   0.514
     3.9  31460.  0.3179   0.932   0.504
    3.88  31290.  0.3195   0.815   0.526
    3.85  31050.  0.3220   0.708   0.565
    3.83  30890.  0.3237   0.616   0.609
     3.3  30650.  0.3263   0.526   0.663
    3.75  30250.  0.3306   0.371   0.813
    3.73  30090.  0.3324   0.321   0.902
     3.7  29840.  0.3351   0.294   0.986
    3.65  29440.  0.3397   0.259    1.12
     3.6  29040.  0.3444   0.238    1.24
     3.5  28230.  0.3542   0.209    1.44
     3.4  27420.  0.3647   0.186    1.61
     3.3  26620.  0.3757   0.200    1.67
     3.2  25810.  0.3875   0.192    1.81
     3.1  25000.  0.4000   0.173    1.95
     3.0  24200.  0.4133   0.173    2.11
     2.9  23390.  0.4275   0.160    2.26
     2.8  22580.  0.4428   0.157    2.40
     2.7  21780.  0.4592   0.144    2.56
     2.6  20970.  0.4769   0.132    2.72
     2.5  20160.  0.4959   0.130    2.88
     2.4  19360.  0.5166   0.130    3.07
     2.3  18550.  0.5391   0.129    3.25
     2.2  17740.  0.5636   0.120    3.45
     2.1  16940.  0.5904   0.121    3.66
     2.0  16130.  0.6199   0.131    3.88
     1.9  15320.  0.6526   0.140    4.15
     1.8  14520.  0.6888   0.140    4.44
     1.7  13710.  0.7293   0.148    4.74
     1.6  12900.  0.7749   0.143    5.09
     1.5  12100.  0.8266   0.145    5.50
     1.4  11290.  0.8856   0.163    5.95
     1.3  10490.  0.9537   0.198    6.43
     1.2   9679.   1.033   0.226    6.99
     1.1   8872.   1.127   0.251    7.67
     1.0   8065.   1.240   0.329    8.49
    0.98   7904.   1.265   0.375    7.78
    0.96   7743.   1.291   0.383    7.92
    0.95   7662.   1.305   0.358    8.95
    0.94   7582.   1.319   0.392    8.06
    0.92   7420.   1.348   0.401    8.21
    0.90   7259.   1.378   0.411    8.37
    0.90   7259.   1.378   0.396    9.48
    0.88   7098.   1.409   0.421    8.37
    0.86   6936.   1.442   0.431    8.70
    0.85   6856.   1.459   0.446    10.1
    0.84   6775.   1.476   0.442    8.88
    0.82   6614.   1.512   0.455    9.08
    0.80   6452.   1.550   0.469    9.32
    0.80   6452.   1.550   0.514    10.8
    0.78   6291.   1.590   0.485    9.57
    0.76   6130.   1.631   0.501    9.84
    0.75   6049.   1.653   0.624    11.5
    0.74   5968.   1.675   0.519    10.1
    0.72   5807.   1.722   0.537    10.4
    0.70   5646.   1.771   0.557    10.7
    0.70   5646.   1.771   0.844    12.2
    0.68   5485.   1.823   0.578    11.1
    0.66   5323.   1.879   0.600    11.4
    0.65   5243.   1.907   0.873    13.3
    0.64   5162.   1.937   0.624    11.8
    0.62   5001.   2.000   0.650    12.2
    0.60   4839.   2.066   0.668    12.6
    0.60   4839.   2.066   1.064    14.4
    0.58   4678.   2.138   0.729    13.0
    0.56   4517.   2.214   0.774    13.5
    0.54   4355.   2.296   0.823    14.0
    0.52   4194.   2.384   0.878    14.5
    0.50   4033.   2.480   0.939    15.1
    0.48   3871.   2.583   1.007    15.7
    0.46   3710.   2.695   1.083    16.4
    0.44   3549.   2.818   1.168    17.1
    0.42   3388.   2.952   1.265    17.9
    0.40   3226.   3.100   1.387    18.8
    0.38   3065.   3.263   1.536    19.8
    0.36   2904.   3.444   1.710    20.9
    0.34   2742.   3.647   1.915    22.1
    0.32   2581.   3.875   2.160    23.5
    0.30   2420.   4.133   2.446    25.1
    0.28   2258.   4.428   2.786    26.9
    0.26   2097.   4.769   3.202    29.0
    0.24   1936.   5.166   3.732    31.3
    0.22   1774.   5.636   4.425    34.0
    0.20   1631.   6.199   5.355    37.0
    0.19   1532.   6.526   5.960    38.6
    0.18   1452.   6.888   6.670    40.4
    0.17   1371.   7.293   7.461    42.5
    0.16   1290.   7.749   8.376    44.8
    0.15   1210.   8.266   9.441    47.1
    0.14   1129.   8.856   10.69    49.4
    0.13   1049.   9.537   12.21    52.2
   0.125   1008.   9.919   13.11    53.7
