;UO 
;UO Al.ASC: Values of n and k for polycrystalline aluminum from 
;UO various references in HOCI (pg. 395). References are 7, 55, 100.
;UO 
;UO Copyright (c) 1995 the Optical Society of America.  Contains data
;UO from HANDBOOK OF OPTICAL CONSTANTS IN SOLIDS edited by Edward D.
;UO Palik. Copyright (c) 1985 by Academic Press, Inc. Reproduced by
;UO permission of the publisher.
;UO ----------------------------------------------------------------
;UO     eV    cm-1        um          n      n        k       k
;UO ----------------------------------------------------------------
;N  7
;L  Energy[eV]  Wavelength[cm-1]  Wavelength[um]  n  n  k  k  
     75. 604910. 0.01653    1.01 -0.0001 2.40E-2 -0.0001
     74. 596850. 0.01676    1.01 -0.0001 2.42E-2 -0.0001
     73. 588780. 0.01698    1.02 -0.0001 1.91E-2 -0.0001
     72. 580720. 0.01722    1.02 -0.0001 3.46E-3 -0.0001
     71. 572650. 0.01746    1.01 -0.0001 3.46E-3 -0.0001
     70. 564590. 0.01771    1.01 -0.0001 3.52E-3 -0.0001
     65. 524260. 0.01908   0.995 -0.0001 4.17E-3 -0.0001
     60. 483930. 0.02066   0.987 -0.0001 4.41E-3 -0.0001
     55. 443600. 0.02254   0.979 -0.0001 5.08E-3 -0.0001
     50. 403280. 0.02480   0.969 -0.0001 5.87E-3 -0.0001
     45. 362950. 0.02755   0.957 -0.0001 6.82E-3 -0.0001
     40. 322620. 0.03100   0.940 -0.0001 8.16E-3 -0.0001
     38. 306490. 0.03263   0.931 -0.0001 8.71E-3 -0.0001
     36. 290360. 0.03444   0.921    0.96 9.32E-3  9.5E-3
     34. 274230. 0.03647   0.909 -0.0001 1.02E-2 -0.0001
     33. 266160. 0.03757   0.902   0.943 1.07E-2 1.10E-2
     32. 258100. 0.03875   0.894 -0.0001 1.11E-2 -0.0001
     31. 250030. 0.04000   0.885 -0.0001 1.16E-2 -0.0001
     30. 241970. 0.04133   0.876   0.912 1.25E-2 1.25E-2
     29. 233900. 0.04275   0.865 -0.0001 1.35E-2 -0.0001
     28. 225830. 0.04428   0.854   0.880 1.45E-2 1.41E-2
     27. 217770. 0.04592   0.841 -0.0001 1.55E-2 -0.0001
     26. 209700. 0.04769   0.826   0.838 1.65E-2 1.59E-2
     25. 201640. 0.04959   0.809 -0.0001 1.77E-2 -0.0001
     24. 193570. 0.05166   0.789   0.785 1.90E-2 1.82E-2
     23. 185510. 0.05391   0.766 -0.0001 2.05E-2 -0.0001
     22. 177440. 0.05636   0.740   0.718 2.22E-2 2.13E-2
     21. 169380. 0.05904   0.707 -0.0001 2.42E-2 -0.0001
     20. 161310. 0.06199   0.668   0.635 2.68E-2 2.67E-2
    19.5 157280. 0.06358   0.646 -0.0001 2.84E-2 -0.0001
     19. 153240. 0.06526   0.620   0.580 3.02E-2 3.07E-2
    18.5 149210. 0.06702   0.591 -0.0001 3.24E-2 -0.0001
     18. 145180. 0.06888   0.558   0.520 3.48E-2 3.55E-2
    17.5 141150. 0.07085   0.520 -0.0001 3.81E-2 -0.0001
     17. 137110. 0.07293   0.474   0.445 4.23E-2 4.24E-2
    16.5 133080. 0.07514   0.419 -0.0001 4.87E-2 -0.0001
     16. 129050. 0.07749   0.351   0.345 5.95E-2 6.32E-2
    15.5 125020. 0.07999   0.258 -0.0001 7.77E-2 -0.0001
     15. 120980. 0.08266   0.125   0.225   0.153   0.220
    14.5 116950. 0.08551  0.0616 -0.0001   0.301 -0.0001
     14. 112920. 0.08856  0.0481 -0.0001   0.416 -0.0001
    13.5 108880. 0.09184  0.0409   0.104   0.517   0.390
     13. 104850. 0.09537  0.0376 -0.0001   0.609 -0.0001
    12.5 100820. 0.09919  0.0344 -0.0001   0.700 -0.0001
     12.  96790.  0.1033  0.0328   0.033   0.791   0.580
    11.5  92750.  0.1078  0.0331 -0.0001   0.883 -0.0001
     11.  88720.  0.1127  0.0356 -0.0001   0.978 -0.0001
    10.5  84690.  0.1181  0.0396 -0.0001    1.08 -0.0001
     10.  80660.  0.1240  0.0442 -0.0001    1.18 -0.0001
     9.5  76620.  0.1305  0.0495 -0.0001    1.29 -0.0001
      9.  72590.  0.1378  0.0557 -0.0001    1.40 -0.0001
    8.75  70570.  0.1417  0.0592 -0.0001    1.46 -0.0001
     8.5  68560.  0.1459  0.0630 -0.0001    1.53 -0.0001
    8.25  66540.  0.1503  0.0671 -0.0001    1.59 -0.0001
      8.  64520.  0.1550  0.0716 -0.0001    1.66 -0.0001
    7.75  62510.  0.1600  0.0765 -0.0001    1.74 -0.0001
    7.25  58480.  0.1710  0.0880 -0.0001    1.90 -0.0001
      7.  56460.  0.1771  0.0946 -0.0001    1.98 -0.0001
    6.75  54440.  0.1837   0.102 -0.0001    2.07 -0.0001
    6.25  50410.  0.1984   0.119 -0.0001    2.28 -0.0001
      6.  48390.  0.2066   0.130 -0.0001    2.39 -0.0001
    5.75  46380.  0.2156   0.141 -0.0001    2.51 -0.0001
     5.5  44360.  0.2254   0.155 -0.0001    2.64 -0.0001
    5.25  42340.  0.2362   0.172 -0.0001    2.79 -0.0001
      5.  40330.  0.2480   0.190 -0.0001    2.94 -0.0001
    4.75  38310.  0.2610   0.209 -0.0001    3.11 -0.0001
     4.5  36300.  0.2755   0.233 -0.0001    3.30 -0.0001
    4.25  34280.  0.2917   0.261 -0.0001    3.51 -0.0001
   4.133  33330.   0.300   0.276 -0.0001    3.61 -0.0001
      4.  32260.  0.3100   0.294 -0.0001    3.74 -0.0001
     3.9  31460.  0.3179   0.310 -0.0001    3.84 -0.0001
     3.8  30650.  0.3263   0.326 -0.0001    3.95 -0.0001
     3.7  29840.  0.3351   0.344 -0.0001    4.06 -0.0001
     3.6  29040.  0.3444   0.364 -0.0001    4.17 -0.0001
   3.542  28570.   0.350   0.375 -0.0001    4.24 -0.0001
     3.5  28230.  0.3542   0.385 -0.0001    4.30 -0.0001
     3.4  27420.  0.3647   0.407 -0.0001    4.43 -0.0001
     3.3  26620.  0.3757   0.432 -0.0001    4.56 -0.0001
     3.2  25810.  0.3875   0.460 -0.0001    4.71 -0.0001
     3.1  25000.   0.400   0.490 -0.0001    4.86 -0.0001
     3.0  24200.  0.4133   0.523 -0.0001    5.02 -0.0001
     2.9  23390.  0.4275   0.558 -0.0001    5.20 -0.0001
     2.8  22580.  0.4428   0.598 -0.0001    5.38 -0.0001
   2.755  22220.   0.450   0.618 -0.0001    5.47 -0.0001
     2.7  21780.  0.4592   0.644 -0.0001    5.58 -0.0001
     2.6  20970.  0.4769   0.695 -0.0001    5.80 -0.0001
     2.5  20160.  0.4959   0.755   0.779    6.03    5.84
   2.480  20000.   0.500   0.769 -0.0001    6.08 -0.0001
    2.45  19760.  0.5061   0.789   0.818    6.15    5.93
     2.4  19360.  0.5166   0.826   0.852    6.28    6.10
    2.35  18950.  0.5276   0.867   0.891    6.42    6.23
     2.3  18550.  0.5391   0.912   0.944    6.55    6.36
   2.254  18180.   0.550   0.958 -0.0001    6.69 -0.0001
    2.25  18150.  0.5510   0.963    1.00    6.70    6.52
     2.2  17740.  0.5636    1.02    1.07    6.85    6.64
    2.15  17340.  0.5767    1.08    1.15    7.00    6.77
     2.1  16940.  0.5904    1.15    1.22    7.15    6.93
   2.066  16670.   0.600    1.20 -0.0001    7.26 -0.0001
    2.05  16530.  0.6048    1.22    1.31    7.31    7.09
     2.0  16130.  0.6199    1.30    1.40    7.48    7.21
    1.95  15730.  0.6358    1.39    1.51    7.65    7.37
   1.908  15390.   0.650    1.47 -0.0001    7.79 -0.0001
     1.9  15320.  0.6526    1.49    1.63    7.82    7.49
    1.85  14920.  0.6702    1.60    1.78    8.01    7.66
     1.8  14520.  0.6888    1.74    1.94    8.21    7.83
   1.771  14290.   0.700    1.83 -0.0001    8.31 -0.0001
    1.75  14120.  0.7085    1.91    2.13    8.39    8.00
     1.7  13710.  0.7293    2.14    2.34    8.57    8.15
   1.653  13330.   0.750    2.40 -0.0001    8.62 -0.0001
    1.65  13310.  0.7514    2.41    2.57    8.62    8.25
     1.6  12900.  0.7749    2.63    2.87    8.60    8.23
    1.55  12500.  0.7999    2.80    3.04    8.45    8.08
   1.503  12120.   0.825    2.75 -0.0001    8.31 -0.0001
     1.5  12100.  0.8266    2.74    2.94    8.31    7.76
   1.459  11770.   0.850    2.61 -0.0001    8.22 -0.0001
    1.45  11700.  0.8551    2.58    2.53    8.21    7.61
   1.417  11430.   0.875    2.38 -0.0001    8.18 -0.0001
     1.4  11290.  0.8856    2.24    2.14    8.21    7.75
   1.378  11110.   0.900    2.06 -0.0001    8.30 -0.0001
    1.35  10890.  0.9184    1.86    1.82    8.44    8.14
   1.340  10810.   0.925    1.77 -0.0001    8.49 -0.0001
   1.305  10530.   0.950    1.49 -0.0001    8.88 -0.0001
     1.3  10490.  0.9537    1.47    1.58    8.95    8.69
    1.25  10080.  0.9919    1.37    1.41    9.49    9.19
   1.240  10000.   1.000    1.35 -0.0001    9.58 -0.0001
     1.2   9679.   1.033    1.26    1.32    10.0    9.73
    1.15   9275.   1.078    1.21    1.25    10.6    10.3
     1.1   8872.   1.127    1.20    1.23    11.2    10.9
    1.05   8469.   1.181    1.21    1.22    11.8    11.6
   1.033   8333.   1.200    1.21 -0.0001    12.0 -0.0001
      1.   8066.   1.240    1.21    1.25    12.5    12.2
    0.95   7662.   1.305    1.23    1.30    13.2    12.9
     0.9   7259.   1.378    1.26    1.35    14.0    13.7
    0.85   6856.   1.459    1.33    1.43    14.9    14.5
  0.8266   6667.   1.500    1.38 -0.0001    15.4 -0.0001
     0.8   6452.   1.550    1.44    1.50    16.0    15.5
    0.75   6049.   1.653    1.59    1.59    17.1    16.5
     0.7   5646.   1.771    1.77    1.75    18.3    17.8
    0.65   5243.   1.907    1.99 -0.0001    19.8 -0.0001
  0.6199   5000.     2.0    2.15 -0.0001    20.7 -0.0001
     0.6   4839.   2.065    2.27 -0.0001    21.4 -0.0001
    0.55   4436.   2.254    2.62 -0.0001    23.3 -0.0001
     0.5   4033.   2.480    3.07 -0.0001    25.6 -0.0001
    0.45   3629.   2.755    3.68 -0.0001    28.3 -0.0001
  0.4133   3333.     3.0    4.24 -0.0001    30.6 -0.0001
     0.4   3226.   3.100    4.45 -0.0001    31.5 -0.0001
   0.375   3025.   3.306    4.88 -0.0001    33.4 -0.0001
    0.35   2823.   3.542    5.44 -0.0001    35.6 -0.0001
   0.325   2621.   3.815    6.00 -0.0001    38.1 -0.0001
  0.3100   2500.     4.0    6.43 -0.0001    39.8 -0.0001
     0.3   2420.   4.133    6.76 -0.0001    41.0 -0.0001
   0.275   2218.   4.509    7.61 -0.0001    44.3 -0.0001
    0.25   2016.   4.959    8.59 -0.0001    48.2 -0.0001
  0.2480   2000.     5.0    8.67 -0.0001    48.6 -0.0001
   0.225   1815.   5.510    9.85 -0.0001    53.2 -0.0001
  0.2066   1667.     6.0    11.1 -0.0001    57.6 -0.0001
     0.2   1613.   6.199    11.7 -0.0001    59.4 -0.0001
    0.19   1532.   6.526    12.7 -0.0001    62.2 -0.0001
    0.18   1452.   6.888    13.7 -0.0001    65.2 -0.0001
  0.1771   1429.     7.0    14.0 -0.0001    66.2 -0.0001
    0.17   1371.   7.293    14.9 -0.0001    68.8 -0.0001
    0.16   1290.   7.749    16.5 -0.0001    72.7 -0.0001
  0.1550   1250.     8.0    17.5 -0.0001    74.9 -0.0001
    0.15   1210.   8.266    18.6 -0.0001    77.0 -0.0001
    0.14   1129.   8.856    20.9 -0.0001    81.5 -0.0001
  0.1378   1111.     9.0    21.5 -0.0001    82.6 -0.0001
    0.13   1049.   9.537    23.5 -0.0001    86.5 -0.0001
  0.1240   1000.    10.0    25.3 -0.0001    89.8 -0.0001
    0.12   967.9   10.33    26.6 -0.0001    92.2 -0.0001
  0.1127   909.1    11.0    29.2 -0.0001    96.6 -0.0001
    0.11   887.2   11.27    30.2 -0.0001    98.4 -0.0001
  0.1033   833.3    12.0    33.0 -0.0001     103 -0.0001
     0.1   806.5   12.40    34.5 -0.0001     106 -0.0001
 0.09537   769.2    13.0    36.6 -0.0001     109 -0.0001
   0.095   766.2   13.05    36.8 -0.0001     110 -0.0001
     0.9    725.   13.78    39.7 -0.0001     114 -0.0001
 0.08856   714.3    14.0    40.5 -0.0001     116 -0.0001
   0.085   685.6   14.59    42.8 -0.0001     119 -0.0001
    0.08   645.2   15.50    46.0 -0.0001     124 -0.0001
 0.07749   625.0    16.0    47.7 -0.0001     127 -0.0001
   0.075   604.9   16.53    49.7 -0.0001     129 -0.0001
    0.07   564.6   17.71    53.8 -0.0001     136 -0.0001
 0.06888   555.6    18.0    54.7 -0.0001     137 -0.0001
   0.065   524.3   19.07    57.6 -0.0001     143 -0.0001
 0.06199   500.0    20.0    60.7 -0.0001     147 -0.0001
    0.06   483.9   20.66    62.9 -0.0001     151 -0.0001
 0.05636   454.6    22.0    66.9 -0.0001     157 -0.0001
   0.055   443.6   22.54    68.3 -0.0001     160 -0.0001
 0.05166   416.7    24.0    72.2 -0.0001     168 -0.0001
    0.05   403.3   24.80    75.0 -0.0001     172 -0.0001
 0.04769   384.6    26.0    79.1 -0.0001     178 -0.0001
   0.045   362.9   27.55    84.7 -0.0001     186 -0.0001
 0.04428   357.1    28.0    86.3 -0.0001     189 -0.0001
 0.04133   333.3    30.0    94.2 -0.0001     199 -0.0001
    0.04   322.6   31.00    98.6 -0.0001     204 -0.0001
 0.03875   312.5    32.0     103 -0.0001     208 -0.0001
