;UO 
;UO Al14Ga86.AsA:  Values of n and k for cubic aluminum gallium
;UO arsenide (Al0.14Ga0.86As) from various references in HOCII
;UO (pg. 529, 534).  References are 1, 3, 5. 
;UO 
;UO From HANDBOOK OF OPTICAL CONSTANTS IN SOLIDS II edited by Edward D.
;UO Palik. Copyright (c) 1991 by Academic Press, Inc. Reproduced by
;UO permission of the publisher.
;UO ------------------------------------------------------------ 
;UO      eV   cm-1      um             n         k
;UO ------------------------------------------------------------
;N  5
;L  Energy[eV]  Wavelength[cm-1]  Wavelength[um]  n  k  
     1.5   12098  0.8266   3.570 -0.0001
     1.4   11292  0.8856   3.503 -0.0001
     1.3   10485  0.9537   3.461 -0.0001
     1.2    9679   1.033   3.431 -0.0001
     1.1    8872   1.127   3.408 -0.0001
     1.0    8065   1.240   3.390 -0.0001
     0.9    7259   1.378   3.375 -0.0001
     0.8    6452   1.550   3.363 -0.0001
     0.7    5646   1.771   3.353 -0.0001
     0.6    4839   2.066   3.345 -0.0001
     0.5    4033   2.480   3.338 -0.0001
    1.71   13792  0.7251   3.640 -0.0001
    1.70   13711  0.7293   3.642 -0.0001
    1.69   13631  0.7336   3.642 -0.0001
    1.68   13550  0.7380   3.642 -0.0001
    1.67   13469  0.7424   3.643 -0.0001
    1.66   13389  0.7469   3.643 -0.0001
    1.65   13308  0.7514   3.643 -0.0001
    1.64   13227  0.7560   3.644 -0.0001
    1.63   13147  0.7606   3.606 -0.0001
    1.62   13066  0.7653   3.591 -0.0001
    1.61   12985  0.7701   3.579 -0.0001
    1.60   12905  0.7749   3.569 -0.0001
    1.55   12501  0.7999   3.532 -0.0001
    1.50   12098  0.8266   3.505 -0.0001
    1.45   11695  0.8551   3.482 -0.0001
    1.40   11292  0.8856   3.463 -0.0001
    1.35   10888  0.9184   3.445 -0.0001
    1.30   10485  0.9537   3.429 -0.0001
    1.25   10082  0.9919   3.414 -0.0001
    1.20    9679   1.033   3.400 -0.0001
  0.2480    2000    5.00   3.224 1.99E-5
  0.2066    1667    6.00   3.240 2.81E-5
  0.1771    1429    7.00   3.236 2.74E-5
  0.1550    1250    8.00   3.232 7.43E-5
  0.1378    1111    9.00   3.226 1.43E-4
  0.1240    1000   10.00   3.219 2.38E-4
  0.1227     990   10.10   3.219 2.49E-4
  0.1215     980   10.20   3.218 2.61E-4
  0.1203     970   10.31   3.217 2.74E-4
  0.1190     960   10.42   3.216 2.87E-4
  0.1178     950   10.53   3.215 3.01E-4
  0.1165     940   10.64   3.215 3.16E-4
  0.1153     930   10.75   3.214 3.32E-4
  0.1141     920   10.87   3.213 3.48E-4
  0.1128     910   10.99   3.212 3.66E-4
  0.1116     900   11.11   3.211 3.85E-4
  0.1103     890   11.24   3.210 4.04E-4
  0.1091     880   11.36   3.209 4.25E-4
  0.1079     870   11.49   3.208 4.47E-4
  0.1066     860   11.63   3.206 4.71E-4
  0.1054     850   11.76   3.205 4.96E-4
  0.1041     840   11.90   3.204 5.23E-4
  0.1029     830   12.05   3.203 5.51E-4
  0.1017     820   12.20   3.201 5.82E-4
  0.1004     810   12.35   3.200 6.14E-4
  0.0992     800   12.50   3.198 6.49E-4
  0.0979     790   12.66   3.197 6.87E-4
  0.0967     780   12.82   3.195 7.27E-4
  0.0955     770   12.99   3.193 7.70E-4
  0.0942     760   13.16   3.191 8.16E-4
  0.0930     750   13.33   3.189 8.66E-4
  0.0917     740   13.51   3.187 9.20E-4
  0.0905     730   13.70   3.185 9.78E-4
  0.0893     720   13.89   3.183 1.04E-3
  0.0880     710   14.08   3.180 1.11E-3
  0.0868     700   14.29   3.178 1.18E-3
  0.0855     690   14.49   3.175 1.27E-3
  0.0843     680   14.71   3.172 1.35E-3
  0.0831     670   14.93   3.169 1.45E-3
  0.0818     660   15.15   3.166 1.56E-3
  0.0806     650   15.38   3.163 1.68E-3
  0.0793     640   15.63   3.159 1.81E-3
  0.0781     630   15.87   3.155 1.95E-3
  0.0769     620   16.13   3.151 2.11E-3
  0.0756     610   16.39   3.146 2.29E-3
  0.0744     600   16.67   3.141 2.49E-3
  0.0731     590   16.95   3.136 2.71E-3
  0.0719     580   17.24   3.130 2.97E-3
  0.0707     570   17.54   3.124 3.26E-3
  0.0694     560   17.86   3.117 3.59E-3
  0.0682     550   18.18   3.110 3.97E-3
  0.0669     540   18.52   3.101 4.41E-3
  0.0657     530   18.87   3.092 4.92E-3
  0.0645     520   19.23   3.082 5.53E-3
  0.0632     510   19.61   3.071 6.25E-3
  0.0620     500   20.00   3.058 7.12E-3
  0.0608     490   20.41   3.044 8.17E-3
  0.0595     480   20.83   3.028 9.48E-3
  0.0583     470   21.28   3.009 1.11E-2
  0.0570     460   21.74   2.987 1.32E-2
  0.0558     450   22.22   2.961 1.60E-2
  0.0555     448   22.32   2.955 1.67E-2
  0.0553     446   22.42   2.949 1.74E-2
  0.0550     444   22.52   2.943 1.82E-2
  0.0548     442   22.62   2.936 1.90E-2
  0.0546     440   22.73   2.930 1.99E-2
  0.0543     438   22.83   2.922 2.08E-2
  0.0541     436   22.94   2.915 2.18E-2
  0.0538     434   23.04   2.907 2.29E-2
  0.0536     432   23.15   2.899 2.40E-2
  0.0533     430   23.26   2.891 2.53E-2
  0.0531     428   23.36   2.882 2.67E-2
  0.0528     426   23.47   2.872 2.81E-2
  0.0526     424   23.58   2.862 2.98E-2
  0.0523     422   23.70   2.852 3.15E-2
  0.0521     420   23.81   2.841 3.34E-2
  0.0518     418   23.92   2.829 3.56E-2
  0.0516     416   24.04   2.817 3.79E-2
  0.0513     414   24.15   2.803 4.05E-2
  0.0511     412   24.27   2.789 4.34E-2
  0.0508     410   24.39   2.774 4.66E-2
  0.0506     408   24.51   2.758 5.02E-2
  0.0503     406   24.63   2.741 5.43E-2
  0.0501     404   24.75   2.722 5.89E-2
  0.0498     402   24.88   2.702 6.42E-2
  0.0496     400   25.00   2.680 7.02E-2
  0.0493     398   25.13   2.656 7.73E-2
  0.0491     396   25.25   2.630 8.54E-2
  0.0488     394   25.38   2.601 9.51E-2
  0.0486     392   25.51   2.569 1.07E-1
  0.0484     390   25.64   2.533 1.20E-1
  0.0481     388   25.77   2.493 1.37E-1
  0.0479     386   25.91   2.448 1.58E-1
  0.0476     384   26.04   2.396 1.84E-1
  0.0474     382   26.18   2.337 2.18E-1
  0.0471     380   26.32   2.270 2.62E-1
  0.0469     378   26.46   2.191 3.22E-1
  0.0466     376   26.60   2.102 4.04E-1
  0.0464     374   26.74   2.002 5.21E-1
  0.0461     372   26.88   1.900 6.92E-1
  0.0459     370   27.03   1.819 9.36E-1
  0.0456     368   27.17   1.805 1.26E+0
  0.0454     366   27.32   1.913 1.65E+0
  0.0451     364   27.47   2.194 2.05E+0
  0.0449     362   27.62   2.694 2.36E+0
  0.0446     360   27.78   3.380 2.41E+0
  0.0444     358   27.93   4.003 2.07E+0
  0.0441     356   28.09   4.291 1.52E+0
  0.0439     354   28.25   4.293 1.05E+0
  0.0436     352   28.41   4.177 7.25E-1
  0.0434     350   28.57   4.037 5.19E-1
  0.0431     348   28.74   3.906 3.84E-1
  0.0429     346   28.90   3.791 2.94E-1
  0.0426     344   29.07   3.691 2.31E-1
  0.0424     342   29.24   3.604 1.86E-1
  0.0422     340   29.41   3.527 1.53E-1
  0.0419     338   29.59   3.459 1.29E-1
  0.0417     336   29.76   3.397 1.10E-1
  0.0414     334   29.94   3.341 9.55E-2
  0.0412     332   30.12   3.288 8.43E-2
  0.0409     330   30.30   3.238 7.56E-2
  0.0407     328   30.49   3.191 6.88E-2
  0.0404     326   30.67   3.144 6.37E-2
  0.0402     324   30.86   3.099 5.99E-2
  0.0399     322   31.06   3.054 5.73E-2
  0.0397     320   31.25   3.008 5.57E-2
  0.0394     318   31.45   2.962 5.51E-2
  0.0392     316   31.65   2.914 5.54E-2
  0.0389     314   31.85   2.864 5.67E-2
  0.0387     312   32.05   2.812 5.90E-2
  0.0384     310   32.26   2.756 6.24E-2
  0.0382     308   32.47   2.696 6.72E-2
  0.0379     306   32.68   2.630 7.35E-2
  0.0377     304   32.89   2.558 8.18E-2
  0.0374     302   33.11   2.478 9.26E-2
  0.0372     300   33.33   2.388 1.07E-1
  0.0369     298   33.56   2.283 1.25E-1
  0.0367     296   33.78   2.162 1.51E-1
  0.0365     294   34.01   2.017 1.87E-1
  0.0362     292   34.25   1.841 2.39E-1
  0.0360     290   34.48   1.620 3.23E-1
  0.0357     288   34.72   1.338 4.73E-1
  0.0355     286   34.97   1.013 7.69E-1
  0.0352     284   35.21   0.786 1.25E+0
  0.0350     282   35.46   0.715 1.77E+0
  0.0347     280   35.71   0.734 2.31E+0
  0.0345     278   35.97   0.822 2.88E+0
  0.0342     276   36.23   0.992 3.51E+0
  0.0340     274   36.50   1.299 4.27E+0
  0.0337     272   36.76   1.882 5.18E+0
  0.0335     270   37.04   3.097 6.23E+0
  0.0332     268   37.31   5.523 6.60E+0
  0.0330     266   37.59   7.692 4.63E+0
  0.0327     264   37.88   7.611 2.49E+0
  0.0325     262   38.17   6.944 1.44E+0
  0.0322     260   38.46   6.375 9.23E-1
  0.0320     258   38.76   5.947 6.45E-1
  0.0317     256   39.06   5.623 4.78E-1
  0.0315     254   39.37   5.371 3.70E-1
  0.0312     252   39.68   5.172 2.96E-1
  0.0310     250   40.00   5.009 2.43E-1
  0.0304     245   40.82   4.711 1.61E-1
  0.0298     240   41.67   4.507 1.16E-1
  0.0291     235   42.55   4.360 8.78E-2
  0.0285     230   43.48   4.247 6.92E-2
  0.0279     225   44.44   4.159 5.61E-2
  0.0273     220   45.45   4.087 4.66E-2
  0.0267     215   46.51   4.028 3.93E-2
  0.0260     210   47.62   3.978 3.37E-2
  0.0254     205   48.78   3.936 2.92E-2
  0.0248     200   50.00   3.899 2.56E-2
  0.0207     167   60.00   3.745 1.26E-2
  0.0177     143   70.00   3.684 8.38E-3
  0.0155     125   80.00   3.653 6.35E-3
  0.0138     111   90.00   3.634 5.14E-3
  0.0124     100  100.00   3.621 4.35E-3
