;UO 
;UO Al18Ga82.AsA: Values of n and k for cubic aluminum gallium 
;UO arsenide (Al0.18Ga0.82As from various references in HOCII 
;UO (pg. 538). Reference is 3.
;UO 
;UO From HANDBOOK OF OPTICAL CONSTANTS IN SOLIDS II edited by Edward D.
;UO Palik. Copyright (c) 1991 by Academic Press, Inc. Reproduced by
;UO permission of the publisher.
;UO ------------------------------------------------------------
;UO      eV     cm-1      um          n         k
;UO ------------------------------------------------------------
;N  5
;L  Energy[eV]  Wavelength[cm-1]  Wavelength[um]  n  k  
  0.2480    2000    5.00   3.228 -0.0001
  0.2066    1667    6.00   3.225 -0.0001
  0.1771    1429    7.00   3.221 -0.0001
  0.1550    1250    8.00   3.216 -0.0001
  0.1378    1111    9.00   3.210 -0.0001
  0.1240    1000   10.00   3.203 -0.0001
  0.1227     990   10.10   3.202 -0.0001
  0.1215     980   10.20   3.202 -0.0001
  0.1203     970   10.31   3.201 -0.0001
  0.1190     960   10.42   3.200 -0.0001
  0.1178     950   10.53   3.199 -0.0001
  0.1165     940   10.64   3.198 -0.0001
  0.1153     930   10.75   3.197 -0.0001
  0.1141     920   10.87   3.196 -0.0001
  0.1128     910   10.99   3.195 -0.0001
  0.1116     900   11.11   3.194 -0.0001
  0.1103     890   11.24   3.193 -0.0001
  0.1091     880   11.36   3.192 -0.0001
  0.1079     870   11.49   3.191 -0.0001
  0.1066     860   11.63   3.190 -0.0001
  0.1054     850   11.76   3.188 -0.0001
  0.1041     840   11.90   3.187 -0.0001
  0.1029     830   12.05   3.186 -0.0001
  0.1017     820   12.20   3.184 -0.0001
  0.1004     810   12.35   3.183 -0.0001
  0.0992     800   12.50   3.181 -0.0001
  0.0979     790   12.66   3.179 -0.0001
  0.0967     780   12.82   3.178 -0.0001
  0.0955     770   12.99   3.176 -0.0001
  0.0942     760   13.16   3.174 -0.0001
  0.0930     750   13.33   3.172 -0.0001
  0.0917     740   13.51   3.170 -0.0001
  0.0905     730   13.70   3.168 -0.0001
  0.0893     720   13.89   3.165 -0.0001
  0.0880     710   14.08   3.163 -0.0001
  0.0868     700   14.29   3.160 -0.0001
  0.0855     690   14.49   3.157 -0.0001
  0.0843     680   14.71   3.154 -0.0001
  0.0831     670   14.93   3.151 -0.0001
  0.0818     660   15.15   3.147 -0.0001
  0.0806     650   15.38   3.144 -0.0001
  0.0793     640   15.63   3.140 -0.0001
  0.0781     630   15.87   3.136 -0.0001
  0.0769     620   16.13   3.131 -0.0001
  0.0756     610   16.39   3.126 -0.0001
  0.0744     600   16.67   3.121 -0.0001
  0.0731     590   16.95   3.115 -0.0001
  0.0719     580   17.24   3.109 -0.0001
  0.0707     570   17.54   3.103 -0.0001
  0.0694     560   17.86   3.095 -0.0001
  0.0682     550   18.18   3.087 -0.0001
  0.0669     540   18.52   3.078 -0.0001
  0.0657     530   18.87   3.069 -0.0001
  0.0645     520   19.23   3.058 -0.0001
  0.0632     510   19.61   3.045 -0.0001
  0.0620     500   20.00   3.031 -0.0001
  0.0608     490   20.41   3.016 -0.0001
  0.0595     480   20.83   2.997 -0.0001
  0.0583     470   21.28   2.976 -0.0001
  0.0570     460   21.74   2.951 -0.0001
  0.0558     450   22.22   2.921 -0.0001
  0.0555     448   22.32   2.915 -0.0001
  0.0553     446   22.42   2.908 -0.0001
  0.0550     444   22.52   2.900 -0.0001
  0.0548     442   22.62   2.893 -0.0001
  0.0546     440   22.73   2.885 -0.0001
  0.0543     438   22.83   2.876 -0.0001
  0.0541     436   22.94   2.868 -0.0001
  0.0538     434   23.04   2.859 -0.0001
  0.0536     432   23.15   2.849 -0.0001
  0.0533     430   23.26   2.839 -0.0001
  0.0531     428   23.36   2.828 -0.0001
  0.0528     426   23.47   2.817 -0.0001
  0.0526     424   23.58   2.805 -0.0001
  0.0523     422   23.70   2.792 -0.0001
  0.0521     420   23.81   2.779 -0.0001
  0.0518     418   23.92   2.764 -0.0001
  0.0516     416   24.04   2.749 -0.0001
  0.0513     414   24.15   2.733 -0.0001
  0.0511     412   24.27   2.716 -0.0001
  0.0508     410   24.39   2.697 -0.0001
  0.0506     408   24.51   2.677 -0.0001
  0.0503     406   24.63   2.655 -0.0001
  0.0501     404   24.75   2.631 -0.0001
  0.0498     402   24.88   2.605 -0.0001
  0.0496     400   25.00   2.576 1.56E-2
  0.0493     398   25.13   2.545 2.29E-2
  0.0491     396   25.25   2.511 3.17E-2
  0.0488     394   25.38   2.472 4.26E-2
  0.0486     392   25.51   2.429 5.59E-2
  0.0484     390   25.64   2.380 7.27E-2
  0.0481     388   25.77   2.325 9.40E-2
  0.0479     386   25.91   2.262 1.21E-1
  0.0476     384   26.04   2.189 1.58E-1
  0.0474     382   26.18   2.105 2.07E-1
  0.0471     380   26.32   2.007 2.75E-1
  0.0469     378   26.46   1.895 3.72E-1
  0.0466     376   26.60   1.772 5.15E-1
  0.0464     374   26.74   1.653 7.25E-1
  0.0461     372   26.88   1.576 1.02E+0
  0.0459     370   27.03   1.589 1.38E+0
  0.0456     368   27.17   1.726 1.78E+0
  0.0454     366   27.32   2.012 2.16E+0
  0.0451     364   27.47   2.471 2.47E+0
  0.0449     362   27.62   3.090 2.60E+0
  0.0446     360   27.78   3.731 2.41E+0
  0.0444     358   27.93   4.165 1.96E+0
  0.0441     356   28.09   4.321 1.47E+0
  0.0439     354   28.25   4.299 1.08E+0
  0.0436     352   28.41   4.203 8.01E-1
  0.0434     350   28.57   4.089 6.06E-1
  0.0431     348   28.74   3.978 4.70E-1
  0.0429     346   28.90   3.876 3.72E-1
  0.0426     344   29.07   3.785 2.99E-1
  0.0424     342   29.24   3.704 2.44E-1
  0.0422     340   29.41   3.632 2.01E-1
  0.0419     338   29.59   3.566 1.68E-1
  0.0417     336   29.76   3.506 1.41E-1
  0.0414     334   29.94   3.451 1.19E-1
  0.0412     332   30.12   3.400 1.00E-1
  0.0409     330   30.30   3.351 8.51E-2
  0.0407     328   30.49   3.304 7.22E-2
  0.0404     326   30.67   3.259 6.13E-2
  0.0402     324   30.86   3.216 5.20E-2
  0.0399     322   31.06   3.172 4.40E-2
  0.0397     320   31.25   3.129 3.72E-2
  0.0394     318   31.45   3.085 3.14E-2
  0.0392     316   31.65   3.040 2.66E-2
  0.0389     314   31.85   2.994 2.26E-2
  0.0387     312   32.05   2.946 1.96E-2
  0.0384     310   32.26   2.895 1.75E-2
  0.0382     308   32.47   2.841 1.63E-2
  0.0379     306   32.68   2.782 1.64E-2
  0.0377     304   32.89   2.719 1.78E-2
  0.0374     302   33.11   2.649 2.09E-2
  0.0372     300   33.33   2.571 2.63E-2
  0.0369     298   33.56   2.482 3.46E-2
  0.0367     296   33.78   2.380 4.72E-2
  0.0365     294   34.01   2.261 6.59E-2
  0.0362     292   34.25   2.119 9.43E-2
  0.0360     290   34.48   1.944 1.39E-1
  0.0357     288   34.72   1.724 2.12E-1
  0.0355     286   34.97   1.439 3.48E-1
  0.0352     284   35.21   1.089 6.36E-1
  0.0350     282   35.46   0.840 1.16E+0
  0.0347     280   35.71   0.802 1.74E+0
  0.0345     278   35.97   0.889 2.31E+0
  0.0342     276   36.23   1.079 2.90E+0
  0.0340     274   36.50   1.409 3.53E+0
  0.0337     272   36.76   1.971 4.20E+0
  0.0335     270   37.04   2.919 4.79E+0
  0.0332     268   37.31   4.321 4.91E+0
  0.0330     266   37.59   5.634 4.13E+0
  0.0327     264   37.88   6.135 2.94E+0
  0.0325     262   38.17   6.049 2.02E+0
  0.0322     260   38.46   5.795 1.44E+0
  0.0320     258   38.76   5.534 1.08E+0
  0.0317     256   39.06   5.307 8.41E-1
  0.0315     254   39.37   5.117 6.80E-1
  0.0312     252   39.68   4.959 5.65E-1
  0.0310     250   40.00   4.826 4.79E-1
  0.0304     245   40.82   4.574 3.41E-1
  0.0298     240   41.67   4.397 2.61E-1
  0.0291     235   42.55   4.267 2.09E-1
  0.0285     230   43.48   4.167 1.73E-1
  0.0279     225   44.44   4.088 1.47E-1
  0.0273     220   45.45   4.023 1.27E-1
  0.0267     215   46.51   3.970 1.11E-1
  0.0260     210   47.62   3.924 9.87E-2
  0.0254     205   48.78   3.886 8.85E-2
  0.0248     200   50.00   3.853 7.99E-2
  0.0207     167   60.00   3.710 4.58E-2
  0.0177     143   70.00   3.654 3.30E-2
  0.0155     125   80.00   3.625 2.62E-2
  0.0138     111   90.00   3.607 2.19E-2
  0.0124     100  100.00   3.595 1.89E-2
