;UO 
;UO Al2O3-A.ASC:  Values of n and k for trigonal aluminum oxide from
;UO various references in HOCII (pg. 769).  References are 8, 9, 10,
;UO 11. 
;UO  
;UO From HANDBOOK OF OPTICAL CONSTANTS IN SOLIDS II edited by Edward D.
;UO Palik. Copyright (c) 1991 by Academic Press, Inc. Reproduced by
;UO permission of the publisher.
;UO -----------------------------------------------------------------
;UO  eV    cm-1   um    n(o)   k(o)  n(o)  k(o)  n(e)   k(e)   n(e)  k(e)
;UO -----------------------------------------------------------------
;N  11
;L  Energy[eV]  Wavelength[cm-1]  Wavelength[um]  n(o)  k(o)  n(o)  k(o)  n(e)  k(e)  n(e)  k(e)  
  0.2232    1800   5.556   1.624   0.002 -0.0001 -0.0001   1.594   0.002 -0.0001 -0.0001
  0.2108    1700   5.882   1.600   0.002 -0.0001 -0.0001   1.571   0.003 -0.0001 -0.0001
  0.1984    1600   6.250   1.571   0.003 -0.0001 -0.0001   1.542   0.004 -0.0001 -0.0001
  0.1860    1500   6.667   1.534   0.004 -0.0001 -0.0001   1.506   0.004 -0.0001 -0.0001
  0.1736    1400   7.143   1.485   0.005 -0.0001 -0.0001   1.459   0.006 -0.0001 -0.0001
  0.1612    1300   7.692   1.419   0.007 -0.0001 -0.0001   1.396   0.008 -0.0001 -0.0001
  0.1488    1200   8.333   1.325   0.011 -0.0001 -0.0001   1.307   0.011 -0.0001 -0.0001
  0.1364    1100   9.091   1.181   0.017 -0.0001 -0.0001   1.174   0.018 -0.0001 -0.0001
  0.1240    1000   10.00   0.925   0.034   0.877   0.053   0.950   0.033   0.935   0.037
  0.1228     990   10.10   0.888   0.037   0.839   0.057   0.918   0.035   0.904   0.039
  0.1215     980   10.20   0.847   0.041   0.796   0.062   0.884   0.038   0.869   0.042
  0.1203     970   10.31   0.801   0.045   0.749   0.068   0.846   0.042   0.832   0.045
  0.1190     960   10.42   0.750   0.051   0.696   0.075   0.805   0.046   0.791   0.049
  0.1178     950   10.53   0.693   0.058   0.636   0.084   0.759   0.051   0.745   0.054
  0.1166     940   10.64   0.627   0.067   0.566   0.097   0.709   0.057   0.694   0.061
  0.1153     930   10.75   0.550   0.081   0.484   0.117   0.651   0.066   0.636   0.069
  0.1141     920   10.87   0.456   0.103   0.384   0.153   0.585   0.077   0.569   0.081
  0.1128     910   10.99   0.340   0.147   0.270   0.224   0.507   0.093   0.489   0.098
  0.1116     900   11.11   0.213   0.249   0.182   0.344   0.413   0.121   0.392   0.128
  0.1104     890   11.24   0.143   0.393   0.138   0.468   0.298   0.176   0.276   0.192
  0.1091     880   11.36   0.115   0.522   0.116   0.579   0.193   0.288   0.181   0.312
  0.1079     870   11.49   0.101   0.634   0.103   0.680   0.140   0.419   0.136   0.440
  0.1066     860   11.63   0.093   0.737   0.094   0.774   0.117   0.535   0.116   0.553
  0.1054     850   11.76   0.088   0.834   0.087   0.864   0.104   0.639   0.106   0.655
  0.1042     840   11.90   0.085   0.927   0.083   0.951   0.096   0.734   0.101   0.750
  0.1029     830   12.05   0.083   1.017   0.079   1.037   0.092   0.825   0.099   0.840
  0.1017     820   12.20   0.083   1.107   0.077   1.122   0.089   0.912   0.100   0.927
  0.1004     810   12.35   0.083   1.197   0.075   1.208   0.087   0.998   0.103   1.011
 0.09920     800   12.50   0.084   1.287   0.074   1.294   0.086   1.083   0.108   1.095
 0.09796     790   12.66   0.085   1.379   0.073   1.383   0.086   1.167   0.115   1.177
 0.09672     780   12.82   0.088   1.473   0.072   1.473   0.087   1.253   0.124   1.258
 0.09548     770   12.99   0.090   1.571   0.072   1.567   0.089   1.340   0.134   1.338
 0.09424     760   13.16   0.094   1.672   0.072   1.664   0.091   1.430   0.143   1.417
 0.09300     750   13.33   0.099   1.778   0.073   1.766   0.094   1.523   0.152   1.495
 0.09176     740   13.51   0.104   1.890   0.074   1.873   0.098   1.620   0.157   1.575
 0.09052     730   13.70   0.111   2.010   0.076   1.988   0.102   1.721   0.159   1.659
 0.08928     720   13.89   0.120   2.138   0.078   2.110   0.108   1.830   0.159   1.749
 0.08804     710   14.08   0.131   2.278   0.080   2.243   0.016   1.946   0.156   1.848
 0.08680     700   14.29   0.145   2.433   0.083   2.389   0.127   2.073   0.154   1.958
 0.08556     690   14.49   0.165   2.607   0.088   2.552   0.141   2.214   0.153   2.080
 0.08432     680   14.71   0.192   2.807   0.094   2.739   0.164   2.375   0.153   2.216
 0.08308     670   14.92   0.236   3.047   0.102   2.961   0.211   2.568   0.156   2.371
 0.08184     660   15.15   0.317   3.350   0.118   3.243   0.358   2.782   0.163   2.547
 0.08060     650   15.38   0.516   3.761   0.164   3.657   0.465   2.722   0.175   2.754
 0.07936     640   15.62   1.222   4.181   0.580   4.557   0.329   2.951   0.194   3.004
 0.07812     630   15.87   1.718   3.157   1.482   2.767   0.350   3.298   0.227   3.319
 0.07688     620   16.13   0.852   3.306   0.474   3.564   0.449   3.720   0.286   3.740
 0.07564     610   16.39   0.698   4.006   0.410   4.284   0.662   4.287   0.405   4.359
 0.07440     600   16.67   0.841   4.789   0.491   5.099   1.178   5.123   0.725   5.428
 0.07316     590   16.95   1.298   5.810   0.747   6.301   2.818   6.198   2.371   7.855
 0.07192     580   17.24   2.636   7.240   1.690   8.614   5.915   4.426   8.501   3.269
 0.07068     570   17.54   6.570   7.320   10.26   11.28   5.185   1.755   5.363   0.678
 0.06944     560   17.86   7.683   3.150   9.100   1.534   4.066   0.949   3.959   0.313
 0.06820     550   18.18   6.256   1.432   6.548   0.507   3.265   0.673   3.106   0.206
 0.06696     540   18.52   5.206   0.865   5.280   0.255   2.631   0.580   2.449   0.174
 0.06572     530   18.87   4.455   0.635   4.456   0.158   2.061   0.595   1.837   0.186
 0.06448     520   19.23   3.856   0.545   3.817   0.115   1.488   0.738   1.126   0.278
 0.06324     510   19.61   3.318   0.544   3.243   0.099   0.959   1.121   0.342   0.932
 0.06200     500   20.00   2.774   0.642   2.636   0.106   0.680   1.660   0.213   1.644
 0.06076     490   20.41   2.170   0.930   1.830   0.163   0.582   2.161   0.187   2.168
 0.05952     480   20.83   1.620   1.635   0.380   1.028   0.563   2.627   0.186   2.636
 0.05828     470   21.28   1.521   2.697   0.241   2.622   0.591   3.091   0.201   3.103
 0.05704     460   21.74   1.989   3.903   0.323   4.155   0.663   3.586   0.229   3.606
 0.05580     450   22.22   3.501   5.065   0.730   6.677   0.792   4.145   0.279   4.186
 0.05456     440   22.73   6.125   4.255   10.08   14.01   1.016   4.813   0.363   4.906
 0.05332     430   23.26   6.386   2.025   8.570   0.764   1.422   5.654   0.522   5.881
 0.05208     420   23.81   5.683   1.057   6.356   0.257   2.247   6.738   0.889   7.382
 0.05084     410   24.39   5.102   0.699   5.356   0.152   4.148   7.894   2.161   10.22
 0.04960     400   25.00   4.677   0.612   4.635   0.156   7.599   7.167   11.82   12.96
 0.04836     390   25.64   4.482   0.719   3.533   0.732   8.708   3.874   11.36   2.261
 0.04712     380   26.32   4.589   0.634   5.644   0.552   7.807   1.991   8.541   0.804
 0.04588     370   27.03   4.485   0.378   4.774   0.097   6.927   1.180   7.178   0.422
 0.04464     360   27.78   4.302   0.245   4.438   0.045   6.279   0.782   6.364   0.264
 0.04340     350   28.57   4.144   0.178   4.229   0.028   5.800   0.560   5.816   0.182
 0.04216     340   29.41   4.015   0.139   4.075   0.020   5.436   0.422   5.417   0.133
 0.04092     330   30.30   3.908   0.113   3.953   0.015   5.149   0.331   5.112   0.101
 0.03968     320   31.25   3.818   0.095   3.852   0.011   4.918   0.267   4.871   0.080
 0.03844     310   32.26   3.740   0.082   3.767   0.009   4.727   0.221   4.674   0.064
 0.03720     300   33.33   3.672   0.071   3.693   0.007   4.568   0.185   4.510   0.053
 0.03596     290   34.48   3.611   0.062   3.629 -0.0001   4.431   0.158   4.371   0.044
 0.03472     280   35.71   3.558   0.055   3.572 -0.0001   4.314   0.136   4.253   0.037
 0.03348     270   37.04   3.510   0.049   3.521 -0.0001   4.212   0.119   4.150   0.032
 0.03224     260   38.46   3.467   0.044   3.475 -0.0001   4.123   0.104   4.060   0.027
 0.03100     250   40.00   3.428   0.040   3.434 -0.0001   4.044   0.092   3.980   0.024
 0.02976     240   41.67   3.393   0.036   3.397 -0.0001   3.973   0.082   3.910   0.021
 0.02852     230   43.48   3.361   0.033   3.363 -0.0001   3.911   0.073   3.847   0.018
 0.02728     220   45.45   3.331   0.030   3.332 -0.0001   3.854   0.066   3.791   0.016
 0.02604     210   47.62   3.304   0.027   3.304 -0.0001   3.804   0.059   3.741   0.014
 0.02480     200   50.00   3.280   0.025   3.279 -0.0001   3.758   0.053   3.695   0.012
 0.02356     190   52.63   3.258   0.023   3.255 -0.0001   3.717   0.048   3.654   0.011
 0.02232     180   55.56   3.237   0.021   3.234 -0.0001   3.680   0.043   3.617   0.010
 0.02108     170   58.82   3.218   0.019   3.214 -0.0001   3.646   0.039   3.583   0.009
 0.01984     160   62.50   3.201   0.017   3.196 -0.0001   3.615   0.036   3.553   0.008
 0.01860     150   66.67   3.185   0.016   3.180 -0.0001   3.588   0.032   3.525   0.007
 0.01736     140   71.43   3.171   0.014   3.165 -0.0001   3.562   0.029   3.501   0.006
 0.01612     130   76.92   3.158   0.013   3.151 -0.0001   3.540   0.026   3.478   0.006
 0.01488     120   83.33   3.146   0.012   3.139 -0.0001   3.519   0.023   3.458   0.005
 0.01364     110   90.91   3.135   0.011   3.128 -0.0001   3.501   0.021   3.440   0.004
 0.01240     100   100.0   3.126   0.009   3.118 -0.0001   3.485   0.019   3.424   0.004
 0.01116      90   111.1   3.117   0.008   3.109 -0.0001   3.470   0.016   3.409   0.003
 0.00992      80   125.0   3.110   0.007   3.101 -0.0001   3.458   0.014   3.397   0.003
 0.00868      70   142.9   3.103   0.006   3.095 -0.0001   3.447   0.012   3.386   0.002
 0.00744      60   166.7   3.097   0.005   3.089 -0.0001   3.437   0.010   3.376   0.002
 0.00620      50   200.0   3.093   0.004   3.084 -0.0001   3.429   0.009   3.369   0.002
 0.00496      40   250.0   3.089   0.004   3.080 -0.0001   3.423   0.007   3.362   0.001
 0.00372      30   333.3   3.086   0.003   3.077 -0.0001   3.418   0.005   3.357   0.001
 0.00248      20   500.0   3.084   0.002   3.075 -0.0001   3.415   0.003   3.354   0.001
 0.00124      10    1000   3.083   0.001   3.073 -0.0001   3.412   0.002   3.352 -0.0001
