;UO 
;UO Al36Ga64.AsA: Values of n and k for for cubic aluminum gallium
;UO arsenide (Al0.36Ga0.64As) from various references in HOCII (pg.
;UO 546).  Reference is 3.
;UO 
;UO From HANDBOOK OF OPTICAL CONSTANTS IN SOLIDS II edited by Edward D.
;UO Palik. Copyright (c) 1991 by Academic Press, Inc. Reproduced by
;UO permission of the publisher.
;UO -------------------------------------------------------------
;UO       eV     cm-1      um         n          k
;UO -------------------------------------------------------------
;N  5
;L  Energy[eV]  Wavelength[cm-1]  Wavelength[um]  n  k  
  0.2480    2000    5.00   3.160 -0.0001
  0.2066    1667    6.00   3.155 -0.0001
  0.1771    1429    7.00   3.150 -0.0001
  0.1550    1250    8.00   3.144 -0.0001
  0.1378    1111    9.00   3.137 -0.0001
  0.1240    1000   10.00   3.129 -0.0001
  0.1227     990   10.10   3.128 -0.0001
  0.1215     980   10.20   3.127 -0.0001
  0.1203     970   10.31   3.126 -0.0001
  0.1190     960   10.42   3.125 -0.0001
  0.1178     950   10.53   3.124 -0.0001
  0.1165     940   10.64   3.123 -0.0001
  0.1153     930   10.75   3.122 -0.0001
  0.1141     920   10.87   3.121 -0.0001
  0.1128     910   10.99   3.120 -0.0001
  0.1116     900   11.11   3.118 -0.0001
  0.1103     890   11.24   3.117 -0.0001
  0.1091     880   11.36   3.116 -0.0001
  0.1079     870   11.49   3.114 -0.0001
  0.1066     860   11.63   3.113 -0.0001
  0.1054     850   11.76   3.111 -0.0001
  0.1041     840   11.90   3.109 -0.0001
  0.1029     830   12.05   3.108 -0.0001
  0.1017     820   12.20   3.106 -0.0001
  0.1004     810   12.35   3.104 -0.0001
  0.0992     800   12.50   3.102 -0.0001
  0.0979     790   12.66   3.100 -0.0001
  0.0967     780   12.82   3.098 -0.0001
  0.0955     770   12.99   3.095 -0.0001
  0.0942     760   13.16   3.093 -0.0001
  0.0930     750   13.33   3.090 -0.0001
  0.0917     740   13.51   3.088 -0.0001
  0.0905     730   13.70   3.085 -0.0001
  0.0893     720   13.89   3.082 -0.0001
  0.0880     710   14.08   3.079 -0.0001
  0.0868     700   14.29   3.075 -0.0001
  0.0855     690   14.49   3.071 -0.0001
  0.0843     680   14.71   3.068 -0.0001
  0.0831     670   14.93   3.063 -0.0001
  0.0818     660   15.15   3.059 -0.0001
  0.0806     650   15.38   3.054 -0.0001
  0.0793     640   15.63   3.049 -0.0001
  0.0781     630   15.87   3.044 -0.0001
  0.0769     620   16.13   3.038 -0.0001
  0.0756     610   16.39   3.032 -0.0001
  0.0744     600   16.67   3.025 -0.0001
  0.0731     590   16.95   3.017 -0.0001
  0.0719     580   17.24   3.009 -0.0001
  0.0707     570   17.54   3.000 -0.0001
  0.0694     560   17.86   2.990 -0.0001
  0.0682     550   18.18   2.979 -0.0001
  0.0669     540   18.52   2.967 -0.0001
  0.0657     530   18.87   2.954 -0.0001
  0.0645     520   19.23   2.939 -0.0001
  0.0632     510   19.61   2.921 -0.0001
  0.0620     500   20.00   2.902 -0.0001
  0.0608     490   20.41   2.879 -0.0001
  0.0595     480   20.83   2.853 -0.0001
  0.0583     470   21.28   2.822 -0.0001
  0.0570     460   21.74   2.784 -0.0001
  0.0558     450   22.22   2.738 -0.0001
  0.0555     448   22.32   2.728 -0.0001
  0.0553     446   22.42   2.717 -0.0001
  0.0550     444   22.52   2.706 -0.0001
  0.0548     442   22.62   2.694 -0.0001
  0.0546     440   22.73   2.681 -0.0001
  0.0543     438   22.83   2.668 -0.0001
  0.0541     436   22.94   2.654 -0.0001
  0.0538     434   23.04   2.639 -0.0001
  0.0536     432   23.15   2.623 -0.0001
  0.0533     430   23.26   2.607 -0.0001
  0.0531     428   23.36   2.589 -0.0001
  0.0528     426   23.47   2.570 -0.0001
  0.0526     424   23.58   2.550 -0.0001
  0.0523     422   23.70   2.529 -0.0001
  0.0521     420   23.81   2.506 -0.0001
  0.0518     418   23.92   2.482 -0.0001
  0.0516     416   24.04   2.455 -0.0001
  0.0513     414   24.15   2.427 -0.0001
  0.0511     412   24.27   2.396 -0.0001
  0.0508     410   24.39   2.362 -0.0001
  0.0506     408   24.51   2.325 -0.0001
  0.0503     406   24.63   2.285 -0.0001
  0.0501     404   24.75   2.241 1.53E-2
  0.0498     402   24.88   2.191 2.56E-2
  0.0496     400   25.00   2.136 3.84E-2
  0.0493     398   25.13   2.075 5.42E-2
  0.0491     396   25.25   2.005 7.41E-2
  0.0488     394   25.38   1.925 9.96E-2
  0.0486     392   25.51   1.834 1.33E-1
  0.0484     390   25.64   1.727 1.78E-1
  0.0481     388   25.77   1.602 2.41E-1
  0.0479     386   25.91   1.456 3.32E-1
  0.0476     384   26.04   1.290 4.70E-1
  0.0474     382   26.18   1.121 6.82E-1
  0.0471     380   26.32   0.995 9.74E-1
  0.0469     378   26.46   0.946 1.31E+0
  0.0466     376   26.60   0.967 1.67E+0
  0.0464     374   26.74   1.049 2.03E+0
  0.0461     372   26.88   1.191 2.40E+0
  0.0459     370   27.03   1.411 2.79E+0
  0.0456     368   27.17   1.736 3.19E+0
  0.0454     366   27.32   2.213 3.56E+0
  0.0451     364   27.47   2.887 3.83E+0
  0.0449     362   27.62   3.733 3.84E+0
  0.0446     360   27.78   4.545 3.44E+0
  0.0444     358   27.93   5.043 2.76E+0
  0.0441     356   28.09   5.182 2.08E+0
  0.0439     354   28.25   5.109 1.55E+0
  0.0436     352   28.41   4.955 1.17E+0
  0.0434     350   28.57   4.787 9.04E-1
  0.0431     348   28.74   4.627 7.15E-1
  0.0429     346   28.90   4.483 5.77E-1
  0.0426     344   29.07   4.355 4.74E-1
  0.0424     342   29.24   4.243 3.95E-1
  0.0422     340   29.41   4.143 3.33E-1
  0.0419     338   29.59   4.055 2.83E-1
  0.0417     336   29.76   3.975 2.43E-1
  0.0414     334   29.94   3.903 2.09E-1
  0.0412     332   30.12   3.837 1.81E-1
  0.0409     330   30.30   3.776 1.58E-1
  0.0407     328   30.49   3.720 1.37E-1
  0.0404     326   30.67   3.667 1.20E-1
  0.0402     324   30.86   3.617 1.04E-l
  0.0399     322   31.06   3.569 9.11E-2
  0.0397     320   31.25   3.523 7.93E-2
  0.0394     318   31.45   3.478 6.88E-2
  0.0392     316   31.65   3.434 5.95E-2
  0.0389     314   31.85   3.390 5.12E-2
  0.0387     312   32.05   3.347 4.39E-2
  0.0384     310   32.26   3.303 3.74E-2
  0.0382     308   32.47   3.258 3.18E-2
  0.0379     306   32.68   3.211 2.71E-2
  0.0377     304   32.89   3.163 2.33E-2
  0.0374     302   33.11   3.112 2.04E-2
  0.0372     300   33.33   3.057 1.87E-2
  0.0369     298   33.56   2.998 1.84E-2
  0.0367     296   33.78   2.934 2.00E-2
  0.0365     294   34.01   2.863 2.38E-2
  0.0362     292   34.25   2.782 3.10E-2
  0.0360     290   34.48   2.691 4.28E-2
  0.0357     288   34.72   2.584 6.14E-2
  0.0355     286   34.97   2.457 9.06E-2
  0.0352     284   35.21   2.303 1.37E-1
  0.0350     282   35.46   2.113 2.14E-1
  0.0347     280   35.71   1.875 3.49E-1
  0.0345     278   35.97   1.590 6.03E-1
  0.0342     276   36.23   1.346 1.06E+0
  0.0340     274   36.50   1.306 1.67E+0
  0.0337     272   36.76   1.485 2.30E+0
  0.0335     270   37.04   1.879 2.90E+0
  0.0332     268   37.31   2.539 3.41E+0
  0.0330     266   37.59   3.473 3.63E+0
  0.0327     264   37.88   4.436 3.33E+0
  0.0325     262   38.17   5.024 2.65E+0
  0.0322     260   38.46   5.187 1.98E+0
  0.0320     258   38.76   5.132 1.48E+0
  0.0317     256   39.06   5.005 1.14E+0
  0.0315     254   39.37   4.869 9.03E-1
  0.0312     252   39.68   4.743 7.38E-1
  0.0310     250   40.00   4.632 6.18E-1
  0.0304     245   40.82   4.414 4.30E-1
  0.0298     240   41.67   4.259 3.25E-1
  0.0291     235   42.55   4.144 2.58E-1
  0.0285     230   43.48   4.056 2.13E-1
  0.0279     225   44.44   3.986 1.81E-1
  0.0273     220   45.45   3.929 1.56E-1
  0.0267     215   46.51   3.882 1.37E-1
  0.0260     210   47.62   3.842 1.22E-1
  0.0254     205   48.78   3.808 1.l0E-1
  0.0248     200   50.00   3.779 9.92E-2
  0.0207     167   60.00   3.651 5.77E-2
  0.0177     143   70.00   3.599 4.19E-2
  0.0155     125   80.00   3.572 3.34E-2
  0.0138     111   90.00   3.555 2.80E-2
  0.0124     100  100.00   3.544 2.42E-2
