;UO 
;UO Al3Ga7As.ASC:  Values of n and k for cubic aluminum gallium
;UO arsenide (Al0.3Ga0.7As) from various references in HOCII
;UO (pg. 518, 530, 542).  References are 1, 3, 8, 9. 
;UO 
;UO From HANDBOOK OF OPTICAL CONSTANTS IN SOLIDS II edited by Edward D.
;UO Palik. Copyright (c) 1991 by Academic Press, Inc. Reproduced by
;UO permission of the publisher.
;UO -------------------------------------------------------------
;UO      eV     cm-1      um             n             k 
;UO -------------------------------------------------------------	
;N  5
;L  Energy[eV]  Wavelength[cm-1]  Wavelength[um]  n  k  
   10000 80655000 0.0001240 0.99999150 1.74E-7
    9772 78816000 0.0001269 0.99999110 1.90E-7
    9331 75259000 0.0001329 0.99999010 2.27E-7
    8909 71855000 0.0001392 0.9999891 2.71E-7
    8507 68613000 0.0001458 0.9999880 3.23E-7
    8123 65516000 0.0001526 0.9999868 3.85E-7
    7756 62556000 0.0001599 0.9999854 4.59E-7
    7406 59733000 0.0001674 0.9999840 5.46E-7
    7072 57039000 0.0001753 0.9999824 6.50E-7
    6752 54458000 0.0001836 0.9999806 7.73E-7
    6447 51998000 0.0001923 0.9999787 9.20E-7
    6156 49651000 0.0002014 0.9999766 1.09E-6
    5878 47409000 0.0002109 0.9999743 1.30E-6
    5613 45272000 0.0002209 0.9999717 1.55E-6
    5359 43223000 0.0002314 0.9999689 1.84E-6
    5117 41271000 0.0002423 0.9999658 2.18E-6
    4886 39408000 0.0002538 0.9999624 2.59E-6
    4665 37625000 0.0002658 0.9999587 3.08E-6
    4455 35932000 0.0002783 0.9999546 3.66E-6
    4254 34311000 0.0002915 0.9999501 4.34E-6
    4062 32762000 0.0003053 0.9999452 5.15E-6
    3878 31278000 0.0003197 0.9999399 6.11E-6
    3703 29866000 0.0003348 0.9999340 7.24E-6
    3536 28520000 0.0003506 0.9999275 8.59E-6
    3376 27229000 0.0003672 0.9999205 1.02E-5
    3224 26003000 0.0003846 0.9999128 1.21E-5
    3078 24826000 0.0004028 0.9999044 1.43E-5
    2939 23704000 0.0004218 0.999895 1.69E-5
    2807 22640000 0.0004418 0.999885 2.00E-5
    2680 21615000 0.0004627 0.999875 2.37E-5
    2559 20640000 0.0004846 0.999863 2.80E-5
    2443 19704000 0.0005075 0.999850 3.30E-5
    2333 18817000 0.0005315 0.999837 3.90E-5
    2228 17970000 0.0005566 0.999822 4.60E-5
    2127 17155000 0.0005829 0.999807 5.42E-5
    2031 16381000 0.0006105 0.999791 6.38E-5
    1939 15639000 0.0006394 0.999774 7.49E-5
    1852 14937000 0.0006696 0.999757 8.80E-5
    1768 14260000 0.0007013 0.999739 1.03E-4
    1688 13615000 0.0007344 0.999723 1.21E-4
    1612 13002000 0.0007691 0.999710 1.42E-4
    1575 12703000 0.0007871 0.999708 1.53E-4
    1539 12413000 0.0008055 0.999706 1.58E-4
    1504 12130000 0.0008244 0.999697 1.58E-4
    1470 11856000 0.0008436 0.999687 1.70E-4
    1436 11582000 0.0008633 0.999683 1.83E-4
    1403 11316000 0.0008835 0.999683 1.98E-4
    1371 11058000 0.0009041 0.999692 2.14E-4
    1340 10808000 0.0009253 0.999735 2.31E-4
    1309 10558000 0.0009469 0.999732 1.23E-4
    1280 10324000 0.0009690 0.999684 1.21E-4
    1250 1008200 0.0009917 0.999652 1.29E-4
    1222 9856000 0.001015 0.999629 1.38E-4
    1194 9630200 0.001039 0.999612 1.47E-4
    1167 9412400 0.001063 0.999601 1.57E-4
    1140 9194600 0.001088 0.999603 1.67E-4
    1114 8984900 0.001113 0.999635 6.37E-5
    1088 8775200 0.001139 0.999554 6.88E-5
    1064 8581700 0.001166 0.999503 7.43E-5
    1039 8380000 0.001193 0.999461 8.02E-5
    1016 8194500 0.001221 0.999421 8.66E-5
   969.7 7821100 0.001279 0.999342 1.01E-4
   925.9 7467800 0.001339 0.999261 1.18E-4
   884.1 7130700 0.001402 0.999175 1.38E-4
   844.2 6808900 0.001469 0.999083 1.61E-4
   806.0 6500800 0.001538 0.99898 1.88E-4
   769.7 6208000 0.001611 0.99888 2.21E-4
   734.9 5927300 0.001687 0.99876 2.59E-4
   701.7 5659500 0.001767 0.99863 3.03E-4
   670.0 5403900 0.001851 0.99850 3.54E-4
   639.8 5160300 0.001938 0.99835 4.12E-4
   610.9 4927200 0.002030 0.99819 4.79E-4
   583.3 4704600 0.002126 0.99802 5.55E-4
   557.0 4492500 0.002226 0.99784 6.43E-4
   531.8 4289200 0.002331 0.99764 7.45E-4
   507.8 4095700 0.002442 0.99743 8.59E-4
   484.9 3911000 0.002557 0.99720 9.89E-4
   463.0 3734300 0.002678 0.99695 1.14E-3
   442.1 3565700 0.002805 0.99669 1.31E-3
   422.1 3404400 0.002937 0.99641 1.50E-3
   403.0 3250400 0.003076 0.99611 1.73E-3
   384.8 3103600 0.003222 0.99581 1.97E-3
   367.5 2964100 0.003374 0.99548 2.24E-3
   350.9 2830200 0.003534 0.99513 2.55E-3
   335.0 2822900 0.003701 0.99476 2.90E-3
   319.9 2580100 0.003876 0.99438 3.30E-3
   305.5 2464000 0.004059 0.99401 3.75E-3
   291.7 2352700 0.004251 0.99361 4.23E-3
   278.5 2246200 0.004452 0.99321 4.77E-3
   265.9 2144600 0.004663 0.99283 5.36E-3
   253.9 2047800 0.004883 0.99243 6.00E-3
   242.5 1955900 0.005114 0.99203 6.69E-3
   231.5 1867200 0.005356 0.99163 7.44E-3
   221.1 1783300 0.005609 0.99125 8.29E-3
   211.1 1702600 0.005874 0.99096 9.20E-3
   201.5 1625200 0.006152 0.99069 1.01E-2
   192.4 1576000 0.006443 0.99035 1.10E-2
   183.7 1481600 0.006748 0.99008 1.20E-2
   175.5 1415500 0.007067 0.98988 1.31E-2
   167.5 1351000 0.007401 0.98966 1.41E-2
   160.0 1290500 0.007751 0.98947 1.53E-2
   152.7 1231600 0.008117 0.98931 1.65E-2
   149.3 1204200 0.008307 0.98928 1.71E-2
   145.8 1175900 0.008501 0.98930 1.78E-2
   142.5 1149300 0.008700 0.98933 1.84E-2
   139.3 1123500 0.008903 0.98937 1.90E-2
   136.1 1097700 0.009111 0.98941 1.95E-2
   133.0 1072700 0.009324 0.98942 2.01E-2
   129.9 1047700 0.009542 0.98944 2.07E-2
   127.0 1024300 0.009766 0.98948 2.13E-2
   124.1 1000900 0.009994 0.98956 2.19E-2
   121.2  977540 0.01023 0.98967 2.24E-2
   118.5  955760 0.01047 0.98972 2.30E-2
   115.8  933980 0.01071 0.98978 2.35E-2
   113.1  912210 0.01096 0.98985 2.40E-2
   110.5  891240 0.01122 0.98994 2.45E-2
   108.0  871070 0.01148 0.98999 2.50E-2
   105.5  850910 0.01175 0.99001 2.54E-2
   103.1  831550 0.01202 0.99002 2.59E-2
   100.8  813000 0.01230 0.99003 2.64E-2
   98.47  794210 0.01259 0.99005 2.68E-2
   96.22  776060 0.01289 0.99007 2.72E-2
   94.03  758400 0.01319 0.99002 2.76E-2
   91.88  741060 0.01349 0.98995 2.80E-2
   89.78  724120 0.01381 0.98988 2.84E-2
   87.73  707580 0.01413 0.98983 2.89E-2
   85.73  691450 0.01446 0.98987 2.92E-2
   83.77  675650 0.01480 0.98978 2.95E-2
   81.85  660160 0.01515 0.98962 2.97E-2
   79.99  645160 0.01550 0.98942 3.00E-2
   78.16  630400 0.01586 0.98924 3.03E-2
   76.37  615960 0.01623 0.98909 3.06E-2
   74.63  601930 0.01661 0.98911 3.09E-2
   72.92  588130 0.01700 0.98957 3.12E-2
   71.26  574750 0.01740 0.98850 2.91E-2
   69.63  561600 0.01781 0.98727 2.94E-2
   68.04  548780 0.01822 0.98637 2.97E-2
   66.49  536270 0.01865 0.98554 2.99E-2
   64.97  524010 0.01908 0.98462 3.00E-2
   63.49  512080 0.01953 0.98370 3.01E-2
   62.04  500380 0.01999 0.98272 3.02E-2
   60.62  488930 0.02045 0.98162 3.02E-2
   59.24  477800 0.02093 0.98038 3.01E-2
   57.88  466830 0.02142 0.97898 3.01E-2
   56.56  456180 0.02192 0.97746 3.01E-2
   55.27  445780 0.02243 0.97582 3.02E-2
   54.01  435620 0.02296 0.97407 3.03E-2
   52.77  425620 0.02349 0.97221 3.03E-2
   51.57  415940 0.02404 0.970077 3.05E-2
     1.8   14518  0.6888   3.797 -0.0001
     1.7   13711  0.7293   3.580 -0.0001
     1.6   12905  0.7749   3.498 -0.0001
     1.5   12098  0.8266   3.443 -0.0001
     1.4   11292  0.8856   3.403 -0.0001
     1.3   10485  0.9537   3.372 -0.0001
     1.2    9679   1.033   3.346 -0.0001
     1.1    8872   1.127   3.326 -0.0001
     1.0    8065   1.240   3.308 -0.0001
     0.9    7259   1.378   3.294 -0.0001
     0.8    6452   1.550   3.282 -0.0001
     0.7    5646   1.771   3.271 -0.0001
     0.6    4839   2.066   3.263 -0.0001
     0.5    4033   2.480   3.256 -0.0001
  0.2480    2000    5.00   3.179 -0.0001
  0.2066    1667    6.00   3.175 -0.0001
  0.1771    1429    7.00   3.170 -0.0001
  0.1550    1250    8.00   3.164 -0.0001
  0.1378    1111    9.00   3.157 -0.0001
  0.1240    1000   10.00   3.150 -0.0001
  0.1227     990   10.10   3.149 -0.0001
  0.1215     980   10.20   3.148 -0.0001
  0.1203     970   10.31   3.147 -0.0001
  0.1190     960   10.42   3.146 -0.0001
  0.1178     950   10.53   3.145 -0.0001
  0.1165     940   10.64   3.144 -0.0001
  0.1153     930   10.75   3.143 -0.0001
  0.1141     920   10.87   3.142 -0.0001
  0.1128     910      l0      99       3
  0.1116     900   11.11   3.139 -0.0001
  0.1103     890   11.24   3.138 -0.0001
  0.1091     880   11.36   3.137 -0.0001
  0.1079     870   11.49   3.135 -0.0001
  0.1066     860   11.63   3.134 -0.0001
  0.1054     850   11.76   3.132 -0.0001
  0.1041     840   11.90   3.131 -0.0001
  0.1029     830   12.05   3.129 -0.0001
  0.1017     820   12.20   3.127 -0.0001
  0.1004     810   12.35   3.126 -0.0001
  0.0992     800   12.50   3.124 -0.0001
  0.0979     790   12.66   3.122 -0.0001
  0.0967     780   12.82   3.120 -0.0001
  0.0955     770   12.99   3.117 -0.0001
  0.0942     760   13.16   3.115 -0.0001
  0.0930     750   13.33   3.113 -0.0001
  0.0917     740   13.51   3.110 -0.0001
  0.0905     730   13.70   3.107 -0.0001
  0.0893     720   13.89   3.104 -0.0001
  0.0880     710   14.08   3.101 -0.0001
  0.0868     700   14.29   3.098 -0.0001
  0.0855     690   14.49   3.095 -0.0001
  0.0843     680   14.71   3.091 -0.0001
  0.0831     670   14.93   3.087 -0.0001
  0.0818     660   15.15   3.083 -0.0001
  0.0806     650   15.38   3.079 -0.0001
  0.0793     640   15.63   3.074 -0.0001
  0.0781     630   15.87   3.069 -0.0001
  0.0769     620   16.13   3.063 -0.0001
  0.0756     610   16.39   3.057 -0.0001
  0.0744     600   16.67   3.051 -0.0001
  0.0731     590   16.95   3.044 -0.0001
  0.0719     580   17.24   3.036 -0.0001
  0.0707     570   17.54   3.028 -0.0001
  0.0694     560   17.86   3.018 -0.0001
  0.0682     550   18.18   3.008 -0.0001
  0.0669     540   18.52   2.997 -0.0001
  0.0657     530   18.87   2.984 -0.0001
  0.0645     520   19.23   2.970 -0.0001
  0.0632     510   19.61   2.954 -0.0001
  0.0620     500   20.00   2.936 -0.0001
  0.0608     490   20.41   2.915 -0.0001
  0.0595     480   20.83   2.891 -0.0001
  0.0583     470   21.28   2.862 -0.0001
  0.0570     460   21.74   2.828 -0.0001
  0.0558     450   22.22   2.786 -0.0001
  0.0555     448   22.32   2.777 -0.0001
  0.0553     446   22.42   2.767 -0.0001
  0.0550     444   22.52   2.757 -0.0001
  0.0548     442   22.62   2.746 -0.0001
  0.0546     440   22.73   2.734 -0.0001
  0.0543     438   22.83   2.722 -0.0001
  0.0541     436   22.94   2.710 -0.0001
  0.0538     434   23.04   2.696 -0.0001
  0.0536     432   23.15   2.682 -0.0001
  0.0533     430   23.26   2.668 -0.0001
  0.0531     428   23.36   2.652 -0.0001
  0.0528     426   23.47   2.635 -0.0001
  0.0526     424   23.58   2.617 -0.0001
  0.0523     422   23.70   2.598 -0.0001
  0.0521     420   23.81   2.578 -0.0001
  0.0518     418   23.92   2.557 -0.0001
  0.0516     416   24.04   2.533 1.12E-2
  0.0513     414   24.15   2.508 1.50E-2
  0.0511     412   24.27   2.481 1.95E-2
  0.0508     410   24.39   2.452 2.46E-2
  0.0506     408   24.51   2.420 3.06E-2
  0.0503     406   24.63   2.385 3.76E-2
  0.0501     404   24.75   2.346 4.59E-2
  0.0498     402   24.88   2.304 5.58E-2
  0.0496     400   25.00   2.257 6.78E-2
  0.0493     398   25.13   2.205 8.24E-2
  0.0491     396   25.25   2.146 1.00E-1
  0.0488     394   25.38   2.080 1.23E-1
  0.0486     392   25.51   2.005 1.51E-1
  0.0484     390   25.64   1.918 1.89E-1
  0.0481     388   25.77   1.818 2.38E-1
  0.0479     386   25.91   1.702 3.06E-1
  0.0476     384   26.04   1.567 4.03E-1
  0.0474     382   26.18   1.418 5.44E-1
  0.0471     380   26.32   1.270 7.52E-1
  0.0469     378   26.46   1.158 1.03E+0
  0.0466     376   26.60   1.114 1.37E+0
  0.0464     374   26.74   1.144 1.72E+0
  0.0461     372   26.88   1.246 2.10E+0
  0.0459     370   27.03   1.427 2.49E+0
  0.0456     368   27.17   1.712 2.89E+0
  0.0454     366   27.32   2.142 3.27E+0
  0.0451     364   27.47   2.761 3.56E+0
  0.0449     362   27.62   3.560 3.62E+0
  0.0446     360   27.78   4.356 3.28E+0
  0.0444     358   27.93   4.869 2.65E+0
  0.0441     356   28.09   5.025 2.00E+0
  0.0439     354   28.25   4.964 1.48E+0
  0.0436     352   28.41   4.820 1.11E+0
  0.0434     350   28.57   4.658 8.59E-1
  0.0431     348   28.74   4.505 6.79E-1
  0.0429     346   28.90   4.367 5.49E-1
  0.0426     344   29.07   4.245 4.53E-1
  0.0424     342   29.24   4.137 3.80E-1
  0.0422     340   29.41   4.042 3.23E-1
  0.0419     338   29.59   3.957 2.78E-1
  0.0417     336   29.76   3.880 2.42E-1
  0.0414     334   29.94   3.811 2.12E-1
  0.0412     332   30.12   3.748 1.88E-1
  0.0409     330   30.30   3.689 1.68E-1
  0.0407     328   30.49   3.634 1.51E-1
  0.0404     326   30.67   3.583 1.36E-1
  0.0402     324   30.86   3.534 1.24E-1
  0.0399     322   31.06   3.486 1.13E-1
  0.0397     320   31.25   3.441 1.04E-1
  0.0394     318   31.45   3.396 9.66E-2
  0.0392     316   31.65   3.352 9.02E-2
  0.0389     314   31.85   3.308 8.49E-2
  0.0387     312   32.05   3.263 8.06E-2
  0.0384     310   32.26   3.218 7.74E-2
  0.0382     308   32.47   3.171 7.52E-2
  0.0379     306   32.68   3.122 7.41E-2
  0.0377     304   32.89   3.071 7.43E-2
  0.0374     302   33.11   3.017 7.59E-2
  0.0372     300   33.33   2.958 7.91E-2
  0.0369     298   33.56   2.894 8.44E-2
  0.0367     296   33.78   2.823 9.24E-2
  0.0365     294   34.01   2.743 1.04E-1
  0.0362     292   34.25   2.653 1.21E-1
  0.0360     290   34.48   2.548 1.44E-1
  0.0357     288   34.72   2.425 1.78E-1
  0.0355     286   34.97   2.277 2.29E-1
  0.0352     284   35.21   2.094 3.09E-1
  0.0350     282   35.46   1.868 4.41E-1
  0.0347     280   35.71   1.598 6.77E-1
  0.0345     278   35.97   1.347 1.09E+0
  0.0342     276   36.23   1.247 1.66E+0
  0.0340     274   36.50   1.334 2.28E+0
  0.0337     272   36.76   1.606 2.94E+0
  0.0335     270   37.04   2.134 3.62E+0
  0.0332     268   37.31   3.055 4.18E+0
  0.0330     266   37.59   4.381 4.22E+0
  0.0327     264   37.88   5.496 3.42E+0
  0.0325     262   38.17   5.831 2.36E+0
  0.0322     260   38.46   5.705 1.60E+0
  0.0320     258   38.76   5.467 1.13E+0
  0.0317     256   39.06   5.237 8.40E-1
  0.0315     254   39.37   5.042 6.53E-1
  0.0312     252   39.68   4.879 5.25E-1
  0.0310     250   40.00   4.744 4.34E-1
  0.0304     245   40.82   4.492 2.95E-1
  0.0298     240   41.67   4.320 2.19E-1
  0.0291     235   42.55   4.194 1.72E-1
  0.0285     230   43.48   4.099 1.40E-1
  0.0279     225   44.44   4.025 1.18E-1
  0.0273     220   45.45   3.964 1.01E-1
  0.0267     215   46.51   3.914 8.80E-2
  0.0260     210   47.62   3.872 7.78E-2
  0.0254     205   48.78   3.836 6.94E-2
  0.0248     200   50.00   3.805 6.25E-2
  0.0207     167   60.00   3.671 3.57E-2
  0.0177     143   70.00   3.618 2.57E-2
  0.0155     125   80.00   3.590 2.04E-2
  0.0138     111   90.00   3.573 1.70E-2
  0.0124     100  100.00   3.561 1.47E-2
