;UO 
;UO Al44Ga56.AsA: Values of n and k for for cubic aluminum gallium
;UO arsenide (Al0.44Ga0.56As) from various references in HOCII (pg.
;UO 550). Reference is 3.
;UO 
;UO From HANDBOOK OF OPTICAL CONSTANTS IN SOLIDS II edited by Edward D.
;UO Palik. Copyright (c) 1991 by Academic Press, Inc. Reproduced by
;UO permission of the publisher.
;UO -------------------------------------------------------------
;UO      eV      cm-1      um         n          k
;UO -------------------------------------------------------------
;N  5
;L  Energy[eV]  Wavelength[cm-1]  Wavelength[um]  n  k  
  0.2480    2000    5.00   3.127 -0.0001
  0.2066    1667    6.00   3.122 -0.0001
  0.1771    1429    7.00   3.117 -0.0001
  0.1550    1250    8.00   3.110 -0.0001
  0.1378    1111    9.00   3.102 -0.0001
  0.1240    1000   10.00   3.093 -0.0001
  0.1227     990   10.10   3.092 -0.0001
  0.1215     980   10.20   3.091 -0.0001
  0.1203     970   10.31   3.090 -0.0001
  0.1190     960   10.42   3.089 -0.0001
  0.1178     950   10.53   3.088 -0.0001
  0.1165     940   10.64   3.086 -0.0001
  0.1153     930   10.75   3.085 -0.0001
  0.1141     920   10.87   3.084 -0.0001
  0.1128     910   10.99   3.082 -0.0001
  0.1116     900   11.11   3.081 -0.0001
  0.1103     890   11.24   3.080 -0.0001
  0.1091     880   11.36   3.078 -0.0001
  0.1079     870   11.49   3.076 -0.0001
  0.1066     860   11.63   3.075 -0.0001
  0.1054     850   11.76   3.073 -0.0001
  0.1041     840   11.90   3.071 -0.0001
  0.1029     830   12.05   3.069 -0.0001
  0.1017     820   12.20   3.067 -0.0001
  0.1004     810   12.35   3.065 -0.0001
  0.0992     800   12.50   3.063 -0.0001
  0.0979     790   12.66   3.060 -0.0001
  0.0967     780   12.82   3.058 -0.0001
  0.0955     770   12.99   3.055 -0.0001
  0.0942     760   13.16   3.053 -0.0001
  0.0930     750   13.33   3.050 -0.0001
  0.0917     740   13.51   3.047 -0.0001
  0.0905     730   13.70   3.044 -0.0001
  0.0893     720   13.89   3.040 -0.0001
  0.0880     710   14.08   3.037 -0.0001
  0.0868     700   14.29   3.033 -0.0001
  0.0855     690   14.49   3.029 -0.0001
  0.0843     680   14.71   3.024 -0.0001
  0.0831     670   14.93   3.020 -0.0001
  0.0818     660   15.15   3.015 -0.0001
  0.0806     650   15.38   3.009 -0.0001
  0.0793     640   15.63   3.004 -0.0001
  0.0781     630   15.87   2.997 -0.0001
  0.0769     620   16.13   2.991 -0.0001
  0.0756     610   16.39   2.984 -0.0001
  0.0744     600   16.67   2.976 -0.0001
  0.0731     590   16.95   2.967 -0.0001
  0.0719     580   17.24   2.958 -0.0001
  0.0707     570   17.54   2.948 -0.0001
  0.0694     560   17.86   2.936 -0.0001
  0.0682     550   18.18   2.924 -0.0001
  0.0669     540   18.52   2.910 -0.0001
  0.0657     530   18.87   2.895 -0.0001
  0.0645     520   19.23   2.877 -0.0001
  0.0632     510   19.61   2.857 -0.0001
  0.0620     500   20.00   2.834 -0.0001
  0.0608     490   20.41   2.808 -0.0001
  0.0595     480   20.83   2.777 -0.0001
  0.0583     470   2l.28   2.741 -0.0001
  0.0570     460   2l.74   2.697 -0.0001
  0.0558     450   22.22   2.642 -0.0001
  0.0555     448   22.32   2.630 -0.0001
  0.0553     446   22.42   2.617 -0.0001
  0.0550     444   22.52   2.603 -0.0001
  0.0548     442   22.62   2.589 -0.0001
  0.0546     440   22.73   2.574 -0.0001
  0.0543     438   22.83   2.558 -0.0001
  0.0541     436   22.94   2.541 -0.0001
  0.0538     434   23.04   2.523 -0.0001
  0.0536     432   23.15   2.504 -0.0001
  0.0533     430   23.26   2.484 -0.0001
  0.0531     428   23.36   2.463 1.07E-2
  0.0528     426   23.47   2.440 1.34E-2
  0.0526     424   23.58   2.415 1.64E-2
  0.0523     422   23.70   2.389 1.98E-2
  0.0521     420   23.81   2.361 2.37E-2
  0.0518     418   23.92   2.331 2.81E-2
  0.0516     416   24.04   2.298 3.31E-2
  0.0513     414   24.15   2.263 3.89E-2
  0.0511     412   24.27   2.224 4.57E-2
  0.0508     410   24.39   2.182 5.35E-2
  0.0506     408   24.51   2.135 6.27E-2
  0.0503     406   24.63   2.084 7.37E-2
  0.0501     404   24.75   2.027 8.68E-2
  0.0498     402   24.88   1.963 1.03E-1
  0.0496     400   25.00   1.891 1.22E-1
  0.0493     398   25.13   1.809 1.47E-1
  0.0491     396   25.25   1.715 1.79E-1
  0.0488     394   25.38   1.607 2.21E-1
  0.0486     392   25.51   1.480 2.79E-1
  0.0484     390   25.64   1.331 3.63E-1
  0.0481     388   25.77   1.160 4.90E-1
  0.0479     386   25.91   0.983 6.84E-1
  0.0476     384   26.04   0.844 9.53E-1
  0.0474     382   26.18   0.770 1.26E+0
  0.0471     380   26.32   0.751 1.58E+0
  0.0469     378   26.46   0.774 1.91E+0
  0.0466     376   26.60   0.832 2.25E+0
  0.0464     374   26.74   0.930 2.61E+0
  0.0461     372   26.88   1.077 3.01E+0
  0.0459     370   27.03   1.297 3.44E+0
  0.0456     368   27.17   1.632 3.92E+0
  0.0454     366   27.32   2.156 4.43E+0
  0.0451     364   27.47   2.984 4.89E+0
  0.0449     362   27.62   4.188 5.02E+0
  0.0446     360   27.78   5.463 4.43E+0
  0.0444     358   27.93   6.135 3.28E+0
  0.0441     356   28.09   6.146 2.24E+0
  0.0439     354   28.25   5.884 1.55E+0
  0.0436     352   28.41   5.578 1.11E+0
  0.0434     350   28.57   5.299 8.23E-1
  0.0431     348   28.74   5.060 6.32E-1
  0.0429     346   28.90   4.859 4.99E-1
  0.0426     344   29.07   4.689 4.03E-1
  0.0424     342   29.24   4.543 3.31E-1
  0.0422     340   29.41   4.417 2.76E-1
  0.0419     338   29.59   4.307 2.32E-1
  0.0417     336   29.76   4.210 1.98E-1
  0.0414     334   29.94   4.124 1.69E-1
  0.0412     332   30.12   4.046 1.46E-1
  0.0409     330   30.30   3.975 1.27E-1
  0.0407     328   30.49   3.910 1.10E-1
  0.0404     326   30.67   3.850 9.61E-2
  0.0402     324   30.86   3.793 8.41E-2
  0.0399     322   31.06   3.740 7.37E-2
  0.0397     320   31.25   3.690 6.47E-2
  0.0394     318   31.45   3.642 5.69E-2
  0.0392     316   31.65   3.595 5.01E-2
  0.0389     314   31.85   3.550 4.42E-2
  0.0387     312   32.05   3.506 3.91E-2
  0.0384     310   32.26   3.461 3.48E-2
  0.0382     308   32.47   3.417 3.12E-2
  0.0379     306   32.68   3.372 2.84E-2
  0.0377     304   32.89   3.326 2.64E-2
  0.0374     302   33.11   3.279 2.52E-2
  0.0372     300   33.33   3.229 2.50E-2
  0.0369     298   33.56   3.177 2.59E-2
  0.0367     296   33.78   3.121 2.83E-2
  0.0365     294   34.01   3.060 3.25E-2
  0.0362     292   34.25   2.993 3.90E-2
  0.0360     290   34.48   2.919 4.89E-2
  0.0357     288   34.72   2.834 6.32E-2
  0.0355     286   34.97   2.737 8.43E-2
  0.0352     284   35.21   2.623 1.15E-1
  0.0350     282   35.46   2.486 1.63E-1
  0.0347     280   35.71   2.320 2.37E-1
  0.0345     278   35.97   2.114 3.59E-1
  0.0342     276   36.23   1.868 5.75E-1
  0.0340     274   36.50   1.628 9.58E-1
  0.0337     272   36.76   1.533 1.52E+0
  0.0335     270   37.04   1.674 2.16E+0
  0.0332     268   37.31   2.068 2.79E+0
  0.0330     266   37.59   2.770 3.30E+0
  0.0327     264   37.88   3.761 3.46E+0
  0.0325     262   38.17   4.695 3.03E+0
  0.0322     260   38.46   5.156 2.29E+0
  0.0320     258   38.76   5.211 1.64E+0
  0.0317     256   39.06   5.100 1.20E+0
  0.0315     254   39.37   4.951 9.11E-1
  0.0312     252   39.68   4.808 7.16E-1
  0.0310     250   40.00   4.682 5.80E-1
  0.0304     245   40.82   4.439 3.80E-1
  0.0298     240   41.67   4.271 2.74E-1
  0.0291     235   42.55   4.149 2.12E-1
  0.0285     230   43.48   4.057 1.70E-1
  0.0279     225   44.44   3.985 1.42E-1
  0.0273     220   45.45   3.927 1.21E-1
  0.0267     215   46.51   3.878 1.04E-l
  0.0260     210   47.62   3.838 9.18E-2
  0.0254     205   48.78   3.803 8.16E-2
  0.0248     200   50.00   3.773 7.32E-2
  0.0207     167   60.00   3.644 4.09E-2
  0.0177     143   70.00   3.591 2.92E-2
  0.0155     125   80.00   3.563 2.30E-2
  0.0138     111   90.00   3.547 1.92E-2
  0.0124     100  100.00   3.535 1.65E-2
