;UO 
;UO Al54Ga46.AsA: Values of n and k for cubic aluminum gallium 
;UO arsenide (Al0.54Ga0.46As) from various references in HOCII 
;UO (pg. 554). Reference is 3.
;UO 
;UO From HANDBOOK OF OPTICAL CONSTANTS IN SOLIDS II edited by Edward D.
;UO Palik. Copyright (c) 1991 by Academic Press, Inc. Reproduced by
;UO permission of the publisher.
;UO -----------------------------------------------------------
;UO      eV     cm-1      um          n           k
;UO -----------------------------------------------------------
;N  5
;L  Energy[eV]  Wavelength[cm-1]  Wavelength[um]  n  k  
  0.2480    2000    5.00   3.088 -0.0001
  0.2066    1667    6.00   3.083 -0.0001
  0.1771    1429    7.00   3.078 -0.0001
  0.1550    1250    8.00   3.071 -0.0001
  0.1378    1111    9.00   3.062 -0.0001
  0.1240    1000   10.00   3.053 -0.0001
  0.1227     990   10.10   3.052 -0.0001
  0.1215     980   10.20   3.051 -0.0001
  0.1203     970   10.31   3.049 -0.0001
  0.1190     960   10.42   3.048 -0.0001
  0.1178     950   10.53   3.047 -0.0001
  0.1165     940   10.64   3.046 -0.0001
  0.1153     930   10.75   3.044 -0.0001
  0.1141     920   10.87   3.043 -0.0001
  0.1128     910   10.99   3.042 -0.0001
  0.1116     900   11.11   3.040 -0.0001
  0.1103     890   11.24   3.039 -0.0001
  0.1091     880   11.36   3.037 -0.0001
  0.1079     870   11.49   3.035 -0.0001
  0.1066     860   11.63   3.033 -0.0001
  0.1054     850   11.76   3.032 -0.0001
  0.1041     840   11.90   3.030 -0.0001
  0.1029     830   12.05   3.028 -0.0001
  0.1017     820   12.20   3.025 -0.0001
  0.1004     810   12.35   3.023 -0.0001
  0.0992     800   12.50   3.021 -0.0001
  0.0979     790   12.66   3.018 -0.0001
  0.0967     780   12.82   3.016 -0.0001
  0.0955     770   12.99   3.013 -0.0001
  0.0942     760   13.16   3.010 -0.0001
  0.0930     750   13.33   3.007 -0.0001
  0.0917     740   13.51   3.004 -0.0001
  0.0905     730   13.70   3.000 -0.0001
  0.0893     720   13.89   2.997 -0.0001
  0.0880     710   14.08   2.993 -0.0001
  0.0868     700   14.29   2.989 -0.0001
  0.0855     690   14.49   2.985 -0.0001
  0.0843     680   14.71   2.980 -0.0001
  0.0831     670   14.93   2.975 -0.0001
  0.0818     660   15.15   2.970 -0.0001
  0.0806     650   15.38   2.964 -0.0001
  0.0793     640   15.63   2.958 -0.0001
  0.0781     630   15.87   2.951 -0.0001
  0.0769     620   16.13   2.944 -0.0001
  0.0756     610   16.39   2.936 -0.0001
  0.0744     600   16.67   2.928 -0.0001
  0.0731     590   16.95   2.919 -0.0001
  0.0719     580   17.24   2.908 -0.0001
  0.0707     570   17.54   2.897 -0.0001
  0.0694     560   17.86   2.885 -0.0001
  0.0682     550   18.18   2.871 -0.0001
  0.0669     540   18.52   2.856 -0.0001
  0.0657     530   18.87   2.839 -0.0001
  0.0645     520   19.23   2.820 -0.0001
  0.0632     510   19.61   2.798 -0.0001
  0.0620     500   20.00   2.772 -0.0001
  0.0608     490   20.41   2.743 -0.0001
  0.0595     480   20.83   2.708 -0.0001
  0.0583     470   21.28   2.667 -0.0001
  0.0570     460   21.74   2.616 -0.0001
  0.0558     450   22.22   2.553 1.10E-2
  0.0555     448   22.32   2.539 1.25E-2
  0.0553     446   22.42   2.524 1.41E-2
  0.0550     444   22.52   2.508 1.59E-2
  0.0548     442   22.62   2.491 1.78E-2
  0.0546     440   22.73   2.473 2.00E-2
  0.0543     438   22.83   2.454 2.23E-2
  0.0541     436   22.94   2.434 2.48E-2
  0.0538     434   23.04   2.413 2.77E-2
  0.0536     432   23.15   2.391 3.08E-2
  0.0533     430   23.26   2.367 3.43E-2
  0.0531     428   23.36   2.341 3.81E-2
  0.0528     426   23.47   2.313 4.24E-2
  0.0526     424   23.58   2.284 4.73E-2
  0.0523     422   23.70   2.252 5.27E-2
  0.0521     420   23.81   2.218 5.89E-2
  0.0518     418   23.92   2.180 6.60E-2
  0.0516     416   24.04   2.140 7.41E-2
  0.0513     414   24.15   2.096 8.34E-2
  0.0511     412   24.27   2.047 9.43E-2
  0.0508     410   24.39   1.994 1.07E-1
  0.0506     408   24.51   1.934 1.23E-1
  0.0503     406   24.63   1.868 1.41E-1
  0.0501     404   24.75   1.793 1.64E-1
  0.0498     402   24.88   1.709 1.92E-1
  0.0496     400   25.00   1.612 2.28E-1
  0.0493     398   25.13   1.501 2.76E-1
  0.0491     396   25.25   1.372 3.41E-1
  0.0488     394   25.38   1.224 4.35E-1
  0.0486     392   25.51   1.061 5.74E-1
  0.0484     390   25.64   0.905 7.76E-1
  0.0481     388   25.77   0.790 1.03E+0
  0.0479     386   25.91   0.728 1.31E+0
  0.0476     384   26.04   0.707 1.60E+0
  0.0474     382   26.18   0.717 1.90E+0
  0.0471     380   26.32   0.753 2.20E+0
  0.0469     378   26.46   0.815 2.53E+0
  0.0466     376   26.60   0.910 2.88E+0
  0.0464     374   26.74   1.047 3.27E+0
  0.0461     372   26.88   1.249 3.70E+0
  0.0459     370   27.03   1.552 4.20E+0
  0.0456     368   27.17   2.028 4.75E+0
  0.0454     366   27.32   2.802 5.32E+0
  0.0451     364   27.47   4.038 5.69E+0
  0.0449     362   27.62   5.623 5.32E+0
  0.0446     360   27.78   6.702 4.02E+0
  0.0444     358   27.93   6.825 2.66E+0
  0.0441     356   28.09   6.500 1.74E+0
  0.0439     354   28.25   6.105 1.19E+0
  0.0436     352   28.41   5.751 8.54E-1
  0.0434     350   28.57   5.454 6.35E-1
  0.0431     348   28.74   5.208 4.86E-1
  0.0429     346   28.90   5.003 3.81E-1
  0.0426     344   29.07   4.831 3.04E-1
  0.0424     342   29.24   4.684 2.46E-1
  0.0422     340   29.41   4.557 2.00E-1
  0.0419     338   29.59   4.446 1.65E-1
  0.0417     336   29.76   4.348 1.36E-1
  0.0414     334   29.94   4.261 1.12E-1
  0.0412     332   30.12   4.183 9.28E-2
  0.0409     330   30.30   4.112 7.63E-2
  0.0407     328   30.49   4.047 6.24E-2
  0.0404     326   30.67   3.987 5.03E-2
  0.0402     324   30.86   3.932 3.99E-2
  0.0399     322   31.06   3.880 3.08E-2
  0.0397     320   31.25   3.831 2.29E-2
  0.0394     318   31.45   3.785 1.58E-2
  0.0392     316   31.65   3.741 9.54E-3
  0.0389     314   31.85   3.699 3.97E-3
  0.0387     312   32.05   3.658 9.83E-4
  0.0384     310   32.26   3.617 5.38E-3
  0.0382     308   32.47   3.578 9.25E-3
  0.0379     306   32.68   3.539 1.26E-2
  0.0376     304   32.89   3.499 1.55E-2
  0.0374     302   33.11   3.460 1.78E-2
  0.0372     300   33.33   3.419 1.95E-2
  0.0369     298   33.56   3.377 2.05E-2
  0.0367     296   33.78   3.333 2.07E-2
  0.0365     294   34.01   3.286 1.98E-2
  0.0362     292   34.25   3.237 1.76E-2
  0.0360     290   34.48   3.183 1.36E-2
  0.0357     288   34.72   3.123 7.14E-3
  0.0355     286   34.97   3.057 2.81E-3
  0.0352     284   35.21   2.982 1.78E-2
  0.0350     282   35.46   2.896 4.03E-2
  0.0347     280   35.71   2.795 7.45E-2
  0.0345     278   35.97   2.674 1.27E-1
  0.0342     276   36.23   2.531 2.12E-1
  0.0340     274   36.50   2.362 3.51E-1
  0.0337     272   36.76   2.183 5.86E-1
  0.0335     270   37.04   2.056 9.63E-1
  0.0332     268   37.31   2.104 1.46E+0
  0.0330     266   37.59   2.407 1.96E+0
  0.0327     264   37.88   2.949 2.30E+0
  0.0325     262   38.17   3.606 2.33E+0
  0.0322     260   38.46   4.145 2.05E+0
  0.0320     258   38.76   4.430 1.64E+0
  0.0317     256   39.06   4.514 1.27E+0
  0.0315     254   39.37   4.495 9.91E-1
  0.0312     252   39.68   4.436 7.88E-1
  0.0310     250   40.00   4.367 6.42E-1
  0.0304     245   40.82   4.208 4.20E-1
  0.0298     240   41.67   4.084 3.02E-1
  0.0291     235   42.55   3.991 2.32E-1
  0.0285     230   43.48   3.919 1.86E-1
  0.0279     225   44.44   3.862 1.54E-1
  0.0273     220   45.45   3.815 1.30E-1
  0.0267     215   46.51   3.775 1.12E-1
  0.0260     210   47.62   3.742 9.82E-2
  0.0254     205   48.78   3.713 8.70E-2
  0.0248     200   50.00   3.688 7.77E-2
  0.0207     167   60.00   3.578 4.26E-2
  0.0177     143   70.00   3.532 3.01E-2
  0.0155     125   80.00   3.508 2.37E-2
  0.0138     111   90.00   3.493 1.96E-2
  0.0124     100  100.00   3.483 1.69E-2
