;UO 
;UO AlAs.ASC: Values of n and k for cubic aluminum arsenide from
;UO various references in HOCII (pg. 494). References are 1, 3, 4,
;UO 6, 8, 13, 14.
;UO 
;UO From HANDBOOK OF OPTICAL CONSTANTS IN SOLIDS II edited by Edward D.
;UO Palik. Copyright (c) 1991 by Academic Press, Inc. Reproduced by
;UO permission of the publisher.
;UO --------------------------------------------------------------
;UO       eV    cm-1         um           n             k 
;UO --------------------------------------------------------------
;N  5
;L  Energy[eV]  Wavelength[cm-1]  Wavelength[um]  n  k  
  10000. 80655000. 0.0001240 0.99999320 1.33E-07
   9772. 78816000. 0.0001269 0.99999280 1.45E-07
   9331. 75259000. 0.0001329 0.99999210 1.73E-07
   8909. 71855000. 0.0001392 0.99999130 2.07E-07
   8507. 68613000. 0.0001458 0.99999050 2.47E-07
   8123. 65516000. 0.0001526 0.9999895 2.94E-07
   7756. 62556000. 0.0001599 0.9999884 3.50E-07
   7406. 59733000. 0.0001674 0.9999873 4.18E-07
   7072. 57039000. 0.0001753 0.9999861 4.97E-07
   6752. 54458000. 0.0001836 0.9999846 5.92E-07
   6447. 51998000. 0.0001923 0.9999831 7.05E-07
   6156. 49651000. 0.0002014 0.9999815 8.40E-07
   5878. 47409000. 0.0002109 0.9999796 9.99E-07
   5613. 45272000. 0.0002209 0.9999776 1.19E-06
   5359. 43223000. 0.0002314 0.9999754 1.41E-06
   5117. 41271000. 0.0002423 0.9999730 1.68E-06
   4886. 39408000. 0.0002538 0.9999703 2.00E-06
   4665. 37625000. 0.0002658 0.9999674 2.38E-06
   4455. 35932000. 0.0002783 0.9999642 2.83E-06
   4254. 34311000. 0.0002915 0.9999607 3.36E-06
   4062. 32762000. 0.0003053 0.9999568 3.99E-06
   3878. 31278000. 0.0003197 0.9999526 4.74E-06
   3703. 29866000. 0.0003348 0.9999480 5.63E-06
   3536. 28520000. 0.0003506 0.9999429 6.67E-06
   3376. 27229000. 0.0003672 0.9999374 7.92E-06
   3224. 26003000. 0.0003846 0.9999313 9.39E-06
   3078. 24826000. 0.0004028 0.9999248 1.11E-05
   2939. 23704000. 0.0004218 0.9999176 1.32E-05
   2807. 22640000. 0.0004418 0.9999099 1.56E-05
   2680. 21615000. 0.0004627 0.9999015 1.84E-05
   2559. 20640000. 0.0004846 0.999893 2.18E-05
   2443. 19704000. 0.0005075 0.999883 2.58E-05
   2333. 18817000. 0.0005315 0.999872 3.04E-05
   2228. 17970000. 0.0005566 0.999861 3.59E-05
   2127. 17155000. 0.0005829 0.999850 4.22E-05
   2031. 16381000. 0.0006105 0.999838 4.97E-05
   1939. 15639000. 0.0006394 0.999825 5.83E-05
   1852. 14937000. 0.0006696 0.999813 6.85E-05
   1768. 14260000. 0.0007013 0.999802 8.03E-05
   1688. 13615000. 0.0007344 0.999792 9.40E-05
   1650. 13308000. 0.0007516 0.999789 1.02E-04
   1612. 13002000. 0.0007691 0.999788 1.10E-04
   1575. 12703000. 0.0007871 0.999796 1.19E-04
   1539. 12413000. 0.0008055 0.999794 1.03E-04
   1504. 12130000. 0.0008244 0.999782 9.80E-05
   1470. 11856000. 0.0008436 0.999771 1.06E-04
   1436. 11582000. 0.0008633 0.999766 1.14E-04
   1403. 11316000. 0.0008835 0.999765 1.22E-04
   1371. 11058000. 0.0009041 0.999772 1.32E-04
   1340. 10808000. 0.0009253 0.999811 1.42E-04
   1309. 10558000. 0.0009469 0.999801 2.76E-05
   1280. 10324000. 0.0009690 0.999749 2.99E-05
   1250. 10082000. 0.0009917 0.999716 3.23E-05
   1222. 9856000. 0.001015 0.999688 3.50E-05
   1167. 9412400. 0.001063 0.999639 4.10E-05
   1114. 8984900. 0.001113 0.999590 4.80E-05
   1064. 8581700. 0.001166 0.999539 5.62E-05
   1016. 8194500. 0.001221 0.999486 6.58E-05
   969.7 7821100. 0.001279 0.999429 7.70E-05
   925.9 7467800. 0.001339 0.999367 9.01E-05
   884.1 7130700. 0.001402 0.999299 1.05E-04
   844.2 6808900. 0.001469 0.999226 1.23E-04
   806.0 6500800. 0.001538 0.999147 1.44E-04
   769.7 6208000. 0.001611 0.999060 1.68E-04
   734.9 5927300. 0.001687 0.99897 1.95E-04
   701.7 5659500. 0.001767 0.99886 2.27E-04
   670.0 5403900. 0.001851 0.99875 2.63E-04
   639.8 5160300. 0.001938 0.99863 3.08E-04
   610.9 4927200. 0.002030 0.99850 3.58E-04
   583.3 4704600. 0.002126 0.99836 4.16E-04
   557.0 4492500. 0.002226 0.99820 4.83E-04
   531.8 4289200. 0.002331 0.99803 5.59E-04
   507.8 4095700. 0.002442 0.99785 6.47E-04
   484.9 3911000. 0.002557 0.99766 7.47E-04
   463.0 3734300. 0.002678 0.99745 8.63E-04
   442.1 3565700. 0.002805 0.99722 9.95E-04
   422.1 3404400. 0.002937 0.99699 1.14E-03
   403.0 3250400. 0.003076 0.99673 1.32E-03
   384.8 3103600. 0.003222 0.99646 1.51E-03
   367.5 2964100. 0.003374 0.99617 1.71E-03
   350.9 2830200. 0.003534 0.99585 1.96E-03
   335.0 2701900. 0.003701 0.99552 2.23E-03
   319.9 2580100. 0.003876 0.99516 2.55E-03
   305.5 2464000. 0.004059 0.99479 2.92E-03
   291.7 2352700. 0.004251 0.99441 3.34E-03
   278.5 2246200. 0.004452 0.99404 3.81E-03
   265.9 2144600. 0.004663 0.99368 4.33E-03
   253.9 2047800. 0.004883 0.99330 4.87E-03
   242.5 1955900. 0.005114 0.99289 5.48E-03
   231.5 1867200. 0.005356 0.99250 6.16E-03
   221.1 1783300. 0.005609 0.99210 6.95E-03
   211.1 1702600. 0.005874 0.99182 7.83E-03
   201.5 1625200. 0.006152 0.99156 8.65E-03
   192.4 1551800. 0.006443 0.99126 9.58E-03
   183.7 1481600. 0.006748 0.99106 1.06E-02
   175.5 1415500. 0.007067 0.99101 1.17E-02
   167.5 1351000. 0.007401 0.99093 1.26E-02
   160.0 1290500. 0.007751 0.99087 1.37E-02
   152.7 1231600. 0.008117 0.99086 1.48E-02
   149.3 1204200. 0.008307 0.99092 1.54E-02
   145.8 1175900. 0.008501 0.99102 1.60E-02
   142.5 1149300. 0.008700 0.99112 1.65E-02
   139.3 1123500. 0.008903 0.99119 1.71E-02
   136.1 1097700. 0.009111 0.99128 1.76E-02
   133.0 1072700. 0.009324 0.99139 1.82E-02
   129.9 1047700. 0.009542 0.99153 1.88E-02
   127.0 1024300. 0.009766 0.99176 1.94E-02
   124.1 1000900. 0.009994 0.99212 2.00E-02
   121.2 977540. 0.01023 0.99248 2.04E-02
   118.5 955760. 0.01047 0.99273 2.07E-02
   115.8 933980. 0.01071 0.99294 2.10E-02
   113.1 912210. 0.01096 0.99312 2.14E-02
   110.5 891240. 0.01122 0.99330 2.17E-02
   108.0 871070. 0.01148 0.99349 2.20E-02
   105.5 850910. 0.01175 0.99368 2.24E-02
   103.1 831550. 0.01202 0.99389 2.27E-02
   100.8 813000. 0.01230 0.99411 2.30E-02
   98.47 794210. 0.01259 0.99435 2.33E-02
   96.22 776060. 0.01289 0.99461 2.36E-02
   94.03 758400. 0.01319 0.99484 2.38E-02
   91.88 741060. 0.01349 0.99506 2.40E-02
   89.78 724120. 0.01381 0.99532 2.42E-02
   87.73 707580. 0.01413 0.99567 2.44E-02
   85.73 691450. 0.01446 0.99627 2.44E-02
   83.77 675650. 0.01480 0.99664 2.41E-02
   81.85 660160. 0.01515 0.99686 2.38E-02
   79.99 645160. 0.01550 0.99704 2.35E-02
   78.16 630400. 0.01586 0.99726 2.32E-02
   76.37 615960. 0.01623 0.99762 2.29E-02
   74.63 601930. 0.01661 0.99847 2.26E-02
   72.92 588130. 0.01700 1.00073 2.23E-02
   71.26 574750. 0.01740 0.99803 1.43E-02
   69.63 561600. 0.01781 0.99493 1.43E-02
   68.04 548780. 0.01822 0.99292 1.42E-02
   66.49 536270. 0.01865 0.99125 1.41E-02
   64.97 524010. 0.01908 0.98960 1.39E-02
   63.49 512080. 0.01953 0.98799 1.37E-02
   62.04 500380. 0.01999 0.98635 1.35E-02
   60.62 488930. 0.02045 0.98469 1.32E-02
   59.24 477800. 0.02093 0.98292 1.30E-02
   57.88 466830. 0.02142 0.98103 1.27E-02
   56.56 456180. 0.02192 0.97903 1.25E-02
   55.27 445780. 0.02243 0.97692 1.23E-02
   54.01 435620. 0.02296 0.97470 1.21E-02
   52.77 425620. 0.02349 0.97236 1.20E-02
   51.57 415940. 0.02404 0.96977 1.18E-02
     5.6  45167.  0.2214    1.36    2.75
     5.5  44360.  0.2254    1.36    2.89
     5.4  43554.  0.2296    1.36    3.12
     5.3  42747.  0.2339    1.53    3.40
     5.2  41940.  0.2384    1.77    3.65
     5.1  41134.  0.2431    2.16    3.86
     5.0  40327.  0.2480    2.48    3.95
     4.9  39521.  0.2530    2.92    4.04
     4.8  38714.  0.2583    3.48    4.02
     4.7  37908.  0.2638    3.96    3.70
     4.6  37101.  0.2695    4.22    3.09
     4.5  36295.  0.2755    4.18    2.63
     4.4  35088.  0.2818    4.04    2.52
     4.3  34682.  0.2883    4.01    2.52
     4.2  33875.  0.2952    4.11    2.63
     4.1  33068.  0.3024    4.47    2.68
     4.0  32262.  0.3100    4.92    2.49
     3.9  31455.  0.3179    5.35    2.15
     3.8  30649.  0.3263    5.39    1.30
     3.7  29842.  0.3351    4.99   0.752
     3.6  29036.  0.3444    4.72   0.519
     3.5  28229.  0.3542    4.48   0.334
     3.4  27423.  0.3647    4.30   0.233
     3.3  26616.  0.3757    4.13   0.139
     3.2  25810.  0.3875    3.93   0.115
     3.1  25003.  0.4000    3.77   0.113
     3.0  24196.  0.4133    3.77 5.3E-02
    3.15  25406.  0.3936 -0.0001   0.119
    3.12  25205.  0.3968 -0.0001   0.115
    3.10  25003.  0.4000 -0.0001   0.113
   3.075  24801.  0.4032 -0.0001   0.110
    3.05  24600.  0.4065 -0.0001   0.106
   3.025  24398.  0.4099 -0.0001 9.98E-02
    3.00  24196.  0.4133 -0.0001 6.38E-02
   2.975  23995.  0.4168 -0.0001 3.15E-02
    2.95  23793.  0.4203 -0.0001 1.89E-02
   2.925  23592.  0.4239 -0.0001 1.18E-02
    2.90  23390.  0.4275 -0.0001 1.05E-02
   2.875  23188.  0.4313 -0.0001 1.03E-02
    2.85  22987.  0.4305 -0.0001 9.93E-03
    3.35  27019.  0.3701 -0.0001 1.38E-02
     3.3  26616.  0.3757 -0.0001 3.81E-03
    3.25  26213.  0.3815 -0.0001 3.21E-03
     3.2  25810.  0.3875 -0.0001 2.43E-03
     3.1  25003.  0.4000 -0.0001 1.94E-03
     3.0  24196.  0.4133 -0.0001 1.79E-03
     2.9  23390.  0.4275   3.919 1.67E-03
     2.8  22583.  0.4428   3.703 1.61E-03
     2.7  21777.  0.4592   3.570 1.56E-03
     2.6  20970.  0.4769   3.472 1.53E-03
     2.5  20164.  0.4959   3.394 1.25E-03
     2.4  19357.  0.5166   3.329 6.82E-04
     2.3  18551.  0.5391   3.273 2.75E-04
     2.2  17744.  0.5636   3.225 4.04E-05
     2.1  16938.  0.5904   3.183 2.30E-06
     2.0  16131.  0.6199   3.145 -0.0001
     1.9  15324.  0.6526   3.112 -0.0001
     1.8  14518.  0.6888   3.082 -0.0001
     1.7  13711.  0.7293   3.056 -0.0001
     1.6  12905.  0.7749   3.032 -0.0001
     1.5  12098.  0.8266   3.010 -0.0001
     1.4  11292.  0.8856   2.990 -0.0001
     1.3  10485.  0.9537   2.973 -0.0001
     1.2   9679.   1.033   2.957 -0.0001
     1.1   8872.   1.127   2.943 -0.0001
     1.0   8065.   1.157   2.930 -0.0001
     0.9   7259.   1.378   2.919 -0.0001
     0.8   6452.   1.550   2.909 -0.0001
     0.7   5646.   1.771   2.901 -0.0001
     0.6   4839.   2.066   2.894 -0.0001
     0.5   4033.   2.480   2.888 -0.0001
   2.218  17889.  0.5590   3.201 -0.0001
   2.187  17639.  0.5669   3.189 -0.0001
   2.053  16558.  0.6039   3.139 -0.0001
   1.934  15599.  0.6411   3.102 -0.0001
   1.831  14768.  0.6771   3.072 -0.0001
   1.741  14042.  0.7121   3.049 -0.0001
   1.660  13389.  0.7469   3.029 -0.0001
   1.583  12768.  0.7832   3.012 -0.0001
   1.573  12687.  0.7882   3.009 -0.0001
   1.550  12501.  0.7999   3.005 -0.0001
   1.517  12235.  0.8173   2.999 -0.0001
   1.506  12147.  0.8233   2.995 -0.0001
   1.447  11671.  0.8568   2.983 -0.0001
   1.374  11082.  0.9024   2.970 -0.0001
   1.312  10582.  0.9450   2.960 -0.0001
   1.256  10130.  0.9871   2.951 -0.0001
   1.240  10001.  0.9999   2.948 -0.0001
   1.192   9614.   1.040   2.942 -0.0001
   1.033   8332.   1.200   2.919 -0.0001
   0.775   6251.   1.600   2.892 -0.0001
   0.620   5001.   2.000   2.876 -0.0001
   0.564   4549.   2.198   2.875 -0.0001
  0.2480   2000.   5.000    2.85 -0.0001
  0.1860   1500.   6.667    2.84 -0.0001
  0.1240   1000.   10.00    2.81 -0.0001
  0.1116    900.   11.11    2.80 -0.0001
 0.09919    800.   12.50    2.78 -0.0001
 0.08679    700.   14.29    2.74 2.0E-03
 0.07439    600.   16.67    2.67 4.3E-03
 0.06199    500.   20.00    2.47 1.4E-02
 0.05579    450.   22.22    2.18 4.0E-02
 0.05331    430.   23.26    1.90 7.7E-02
 0.05207    420.   23.81    1.67    0.12
 0.05145    415.   24.10    1.50    0.16
 0.05083    410.   24.39    1.27    0.23
 0.05021    405.   24.69    0.95    0.38
 0.04959    400.   25.00    0.60    0.78
 0.04897    395.   25.32    0.46    1.33
 0.04835    390.   25.64    0.45    1.87
 0.04773    385.   25.97    0.51    2.44
 0.04711    380.   26.32    0.63    3.12
 0.04649    375.   26.67    0.90    4.00
 0.04587    370.   27.03    1.57    5.25
 0.04525    365.   27.40    3.78    6.90
 0.04486   361.8   27.64    6.87    6.25
 0.04463    360.   27.78    7.84    4.57
 0.04401    355.   28.17    6.99    1.59
 0.04339    350.   28.57    5.95    0.75
 0.04215    340.   29.41    4.90    0.29
 0.04092    330.   30.30    4.40    0.15
 0.03968    320.   31.25    4.11 9.5E-02
 0.03844    310.   32.26    3.91 6.5E-02
 0.03720    300.   33.33    3.78 4.7E-02
 0.03100    250.   40.00    3.44 1.5E-02
 0.02480    200.   50.00    3.31 7.3E-03
