;UO 
;UO Au.ASC: Values of n and k for polycrystalline gold obtained
;UO from various references in HOCI (pg. 290).  References are 
;UO 10, 14, 27, 28, 39, 53.
;UO 
;UO From HANDBOOK OF OPTICAL CONSTANTS IN SOLIDS edited by Edward D.
;UO Palik. Copyright (c) 1985 by Academic Press, Inc. Reproduced by
;UO permission of the publisher.
;UO ---------------------------------------------------------------
;UO       eV    cm-l       um           n            k
;UO ---------------------------------------------------------------
;N  5
;L  Energy[eV]  cm-l  Wavelength[um]  n  k  
    9919 80000000 0.000125 0.9999719 2.39E-6
    9184 74070000 0.000135 0.9999665 3.13E-6
    8551 69970000 0.000145 0.9999608 4.02E-6
    8266 66670000 0.000150 0.9999578 4.52E-6
    7085 57140000 0.000175 0.9999415 7.78E-6
    6199 50000000 0.000200 0.9999227 1.25E-5
    4959 40000000 0.000250 0.999879 2.75E-5
    4133 33330000 0.000300 0.999831 5.25E-5
    3542 28570000 0.000350 0.999794 9.07E-5
    3100 25000000 0.000400 0.999769 1.20E-4
    2480 20000000 0.000500 0.999706 2.36E-4
    2066 16660000 0.000600 0.999637 9.88E-5
    1771 14280000 0.000700 0.999395 1.68E-4
    1550 12500000 0.000800 0.999156 2.67E-4
    1487 11990000 0.000834 0.999085 3.10E-4
    1254 10110000 0.000989 0.99885 4.40E-4
    1188 9582000 0.001044 0.99871 5.33E-4
    1012 8162000 0.001225 0.99820 9.40E-4
   929.4 7497000 0.001334 0.99788 1.23E-3
   851.5 6868000 0.001456 0.99759 1.57E-3
   776.4 6262000 0.001597 0.99734 1.86E-3
   704.9 5685000 0.001759 0.99708 2.34E-3
   637.5 5142000 0.001945 0.99665 2.68E-3
   572.9 4621000 0.002164 0.99652 2.85E-3
   524.9 4234000 0.002362 0.99624 3.76E-3
   500.3 4035000 0.002478 0.99600 5.60E-3
   452.2 3647000 0.002742 0.99592 6.10E-3
   395.4 3189000 0.003136 0.99525 6.15E-3
   300.0 2420000 0.004133 0.99100 8.95E-3
   260.0 2097000 0.004769   0.988 1.06E-2
   220.0 1774000 0.005636   0.986 1.18E-2
     200 1613000 0.006199   0.983 1.15E-2
     180 1452000 0.006888   0.979 1.07E-2
     150 1210000 0.008265   0.963 1.01E-2
     120  967900 0.01033   0.929 1.78E-2
     110  887200 0.01127   0.911 2.83E-2
     105  846900 0.01181   0.900 3.53E-2
     100  806550 0.01240   0.889 4.54E-2
      88  709800 0.01409   0.889 5.54E-2
    87.5  705700 0.01417   0.888 5.58E-2
      87  701700 0.01425   0.887 5.76E-2
      86  693600 0.01442   0.886 6.13E-2
      85  685600 0.01459   0.887 6.48E-2
    84.5  681500 0.01467   0.888 6.54E-2
      84  677500 0.01476   0.888 6.33E-2
    83.5  673500 0.01485   0.885 6.37E-2
      83  669400 0.01494   0.884 6.53E-2
      82  661400 0.01512   0.881 6.82E-2
      80  645200 0.01550   0.878 7.52E-2
      78  629100 0.01589   0.875 8.18E-2
      76  613000 0.01631   0.873 8.71E-2
      74  596800 0.01675   0.869 9.27E-2
      72  580700 0.01722   0.862 9.97E-2
      70  564600 0.01771   0.857   0.112
      68  548400 0.01823   0.855   0.124
      66  532300 0.01878   0.856   0.136
      64  516200 0.01937   0.857   0.147
      62  500100 0.02000   0.859   0.156
      60  483900 0.02066   0.863   0.162
      58  467800 0.02138   0.861   0.166
      56  451700 0.02214   0.856   0.171
      54  435500 0.02296   0.848   0.180
      52  419400 0.02384   0.839   0.190
      50  403300 0.02480   0.828   0.204
      49  395200 0.02530   0.821   0.213
      48  387100 0.02583   0.814   0.225
      47  379100 0.02638   0.809   0.238
      46  371000 0.02695   0.805   0.254
      45  362900 0.02755   0.805   0.270
      44  354900 0.02818   0.807   0.282
      43  346800 0.02883   0.807   0.292
      42  338800 0.02952   0.804   0.303
      41  330700 0.03024   0.799   0.317
      40  322600 0.03099   0.795   0.334
      39  314600 0.03179   0.793   0.353
      38  306500 0.03263   0.791   0.371
      37  288400 0.03351   0.788   0.391
      36  290400 0.03444   0.786   0.414
      35  282300 0.03542   0.783   0.439
      34  274200 0.03646   0.779   0.473
      33  266200 0.03757   0.781   0.515
      32  258100 0.03874   0.805   0.570
      31  250000 0.03999   0.851   0.596
    30.5  246000 0.04065   0.870   0.601
      30  242000 0.04133   0.887   0.603
    29.5  237900 0.04203   0.900   0.601
      29  233900 0.04275   0.905   0.599
      28  225800 0.04428   0.901   0.607
      27  217800 0.04592   0.895   0.635
   26.38  212800  0.0470   0.855   0.548
      26  209700 0.04768   0.896   0.679
   25.83  208300  0.0480   0.846   0.565
   25.30  204100  0.0490   0.846   0.600
   24.80  200000  0.0500   0.850   0.645
   24.31  196100  0.0510   0.860   0.695
   23.84  192300  0.0520   0.872   0.740
   23.39  188700  0.0530   0.890   0.795
   22.96  185200  0.0540   0.915   0.825
   22.54  181800  0.0550   0.950   0.840
   22.14  178600  0.0560   0.985   0.848
   21.75  175400  0.0570   1.022   0.850
   21.38  172400  0.0580   1.055   0.842
   21.01  169500  0.0590   1.085   0.830
   20.66  166700  0.0600   1.113   0.813
   20.33  163900  0.0610   1.134   0.795
   20.00  161300  0.0620   1.146   0.770
   19.68  158700  0.0630   1.153   0.750
   19.37  156200  0.0640   1.157   0.730
   19.07  153800  0.0650   1.155   0.710
   18.79  151500  0.0660   1.140   0.700
   18.51  149300  0.0670   1.125   0.694
   18.23  147100  0.0680   1.107   0.687
   17.97  144900  0.0690   1.088   0.680
   17.71  142900  0.0700   1.075   0.678
   17.46  140800  0.0710   1.060   0.680
   17.22  138900  0.0720   1.050   0.685
   16.98  137000  0.0730   1.042   0.690
   16.75  135100  0.0740   1.038   0.697
   16.53  133300  0.0750   1.033   0.704
   16.31  131600  0.0760   1.030   0.713
   16.10  129900  0.0770   1.029   0.720
   15.90  128200  0.0780   1.028   0.730
   15.69  126600  0.0790   1.028   0.739
   15.50  125000  0.0800   1.029   0.745
   15.31  123500  0.0810   1.030   0.752
   15.12  122000  0.0820   1.033   0.759
   14.94  120500  0.0830   1.037   0.765
   14.76  119000  0.0840   1.041   0.770
   14.59  117600  0.0850   1.048   0.775
   14.42  116300  0.0860   1.053   0.780
   14.25  114900  0.0870   1.061   0.784
   14.09  113600  0.0880   1.070   0.789
   13.93  112400  0.0890   1.080   0.793
   13.78  111100  0.0900   1.090   0.798
   13.62  109900  0.0910   1.100   0.801
   13.48  108700  0.0920   1.110   0.806
   13.33  107500  0.0930   1.121   0.809
   13.19  106400  0.0940   1.133   0.812
   13.05  105300  0.0950   1.146   0.815
   12.92  104200  0.0960   1.159   0.819
   12.78  103100  0.0970   1.170   0.823
   12.65  102000  0.0980   1.180   0.826
   12.52  101000  0.0990   1.190   0.831
   12.40  100000   0.100   1.200   0.836
   12.28   99010   0.101   1.207   0.842
   12.16   98040   0.102   1.210   0.848
   12.04   97090   0.103   1.213   0.853
   11.92   96150   0.104   1.215   0.860
   11.81   95240   0.105   1.217   0.865
   11.70   94340   0.106   1.217   0.870
   11.59   93460   0.107   1.218   0.878
   11.48   92590   0.108   1.218   0.885
   11.37   91740   0.109   1.220   0.893
   11.27   90910   0.110   1.222   0.900
   11.17   90090   0.111   1.223   0.907
   11.07   89290   0.112   1.225   0.914
   10.97   88500   0.113   1.228   0.922
   10.88   87720   0.114   1.232   0.927
   10.78   86960   0.115   1.237   0.932
   10.69   86210   0.116   1.242   0.935
   10.60   85470   0.117   1.247   0.942
   10.51   84750   0.118   1.250   0.950
   10.42   84030   0.119   1.255   0.955
   10.33   83330   0.120   1.260   0.962
   10.25   82640   0.121   1.265   0.967
   10.16   81970   0.122   1.270   0.975
   10.08   81300   0.123   1.275   0.982
   10.00   80650   0.124   1.280   0.987
   9.919   80000   0.125   1.285   0.994
   9.840   79360   0.126   1.290   1.000
   9.763   78740   0.127   1.295   1.005
   9.686   78120   0.128   1.300   1.012
   9.611   77520   0.129   1.304   1.017
   9.537   76920   0.130   1.308   1.020
   9.465   76340   0.131   1.313   1.027
   9.393   75760   0.132   1.318   1.032
   9.322   75190   0.133   1.323   1.038
   9.253   74630   0.134   1.328   1.045
   9.184   74070   0.135   1.333   1.050
   9.117   73530   0.136   1.338   1.053
   9.050   72990   0.137   1.345   1.058
   8.984   72460   0.138   1.350   1.063
   8.920   71940   0.139   1.355   1.067
   8.856   71430   0.140   1.360   1.072
   8.551   68970   0.145   1.386   1.089
   8.266   66670   0.150   1.419   1.102
   7.999   64520   0.155   1.450   1.108
   7.749   62500   0.160   1.483   1.106
   7.514   60610   0.165   1.512   1.093
   7.293   58820   0.170   1.519   1.070
   7.085   57140   0.175   1.500   1.070
   6.888   55550   0.180   1.470   1.085
   6.702   54050   0.185   1.442   1.107
   6.526   52630   0.190   1.427   1.135
   6.358   51280   0.195   1.424   1.170
   6.199   50000   0.200   1.427   1.215
     6.0   48390  0.2066   1.422   1.306
     5.9   47590  0.2101   1.430   1.334
     5.8   46780  0.2138   1.432   1.364
     5.7   45970  0.2175   1.438   1.388
     5.6   45170  0.2214   1.442   1.418
     5.5   44360  0.2254   1.452   1.442
     5.4   43550  0.2296   1.454   1.478
     5.3   42750  0.2339   1.462   1.510
     5.2   41940  0.2384   1.470   1.550
     5.1   41130  0.2431   1.478   1.590
     5.0   40330  0.2480   1.484   1.636
     4.9   39520  0.2530   1.490   1.698
     4.8   38710  0.2583   1.504   1.748
     4.7   37910  0.2638   1.546   1.784
     4.6   37100  0.2695   1.598   1.822
     4.5   36290  0.2755   1.648   1.852
     4.4   34590  0.2818   1.690   1.882
     4.3   34680  0.2883   1.742   1.900
     4.2   33880  0.2952   1.776   1.918
     4.1   33070  0.3024   1.812   1.920
     4.0   32260  0.3100   1.830   1.916
     3.9   31460  0.3179   1.840   1.904
     3.8   30650  0.3263   1.824   1.878
     3.7   29840  0.3351   1.798   1.860
     3.6   29040  0.3444   1.766   1.846
     3.5   28230  0.3542   1.740   1.848
     3.4   27420  0.3647   1.716   1.862
     3.3   26620  0.3757   1.696   1.906
     3.2   25810  0.3875   1.674   1.936
     3.1   25000  0.4000   1.658   1.956
     3.0   24200  0.4133   1.636   1.958
     2.9   23390  0.4275   1.616   1.940
     2.8   22580  0.4428   1.562   1.904
     2.7   21780  0.4592   1.426   1.846
     2.6   20970  0.4769   1.242   1.796
     2.5   20160  0.4959   0.916   1.840
     2.4   19360  0.5166   0.608   2.120
     2.3   18550  0.5391   0.402   2.540
     2.2   17740  0.5636   0.306    2.88
     2.1   16940  0.5904   0.236 -0.0001
     2.0   16130  0.6199   0.194 -0.0001
     1.9   15320  0.6526   0.166    3.15
     1.8   14520  0.6888   0.160    3.80
     1.7   13710  0.7293   0.164    4.35
     1.6   12900  0.7749   0.174    4.86
     1.5   12100  0.8266   0.188    5.39
     1.4   11290  0.8856   0.210    5.88
     1.3   10490  0.9537   0.236    6.47
     1.2    9679   1.033   0.272    7.07
     1.1    8872   1.127   0.312    7.93
     1.0    8065   1.240   0.372    8.77
    0.98    7904   1.265   0.389    8.09
    0.96    7743   1.291   0.403    8.25
    0.94    7582   1.319   0.419    8.42
    0.92    7420   1.384   0.436    8.59
    0.90    7259   1.378   0.454    8.77
    0.90    7259   1.378   0.458    9.72
    0.88    7098   1.409   0.473    8.96
    0.86    6936   1.442   0.493    9.15
    0.84    6775   1.476   0.515    9.36
    0.82    6614   1.512   0.537    9.58
    0.80    6452   1.550   0.559    9.81
    0.80    6452   1.550   0.550    11.5
    0.78    6291   1.590   0.583    10.1
    0.76    6130   1.631   0.609    10.3
    0.74    5968   1.675   0.636    10.6
    0.72    5807   1.722   0.665    10.9
    0.70    5646   1.771   0.696    11.2
    0.70    5646   1.771   0.726    12.9
    0.68    5485   1.823   0.730    11.5
    0.66    5323   1.879   0.767    11.9
    0.64    5162   1.937   0.807    12.2
    0.62    5001   2.000   0.850    12.6
    0.60    4839   2.066   0.896    13.0
    0.60    4839   2.066   0.976    15.1
    0.58    4678   2.138   0.947    13.4
    0.56    4517   2.214   1.002    13.9
    0.54    4355   2.296   1.063    14.4
    0.52    4194   2.384   1.130    14.9
    0.50    4033   2.480   1.205    15.5
    0.48    3871   2.583   1.287    16.1
    0.46    3710   2.695   1.379    16.8
    0.44    3549   2.818   1.482    17.5
    0.42    3388   2.952   1.598    18.3
    0.40    3226   3.100   1.728    19.2
    0.39    3146   3.179   1.800    19.7
    0.38    3065   3.263   1.876    20.2
    0.37    2984   3.351   1.958    20.7
    0.36    2904   3.444   2.046    21.3
    0.35    2823   3.542   2.141    21.9
    0.34    2742   2.647   2.242    22.5
    0.33    2662   3.757   2.352    23.1
    0.32    2581   3.875   2.471    23.9
    0.31    2500   4.000   2.600    24.6
    0.30    2420   4.133   2.749    25.4
    0.29    2339   4.275   2.912    26.3
    0.28    2258   4.428   3.091    27.2
    0.27    2178   4.592   3.289    28.2
    0.26    2097   4.769   3.507    29.3
    0.25    2016   4.959   3.748    30.5
    0.24    1936   5.166   4.007    31.7
    0.23    1855   5.391   4.292    32.9
    0.22    1774   5.636   4.611    34.3
    0.21    1694   5.904   4.971    35.9
    0.20    1613   6.199   5.423    37.5
   0.195    1573   6.358   5.684    38.3
    0.19    1532   6.526   5.966    39.1
   0.185    1492   6.702   6.270    40.1
    0.18    1452   6.888   6.598    41.0
   0.175    1411   7.085   6.937    42.0
    0.17    1371   7.293   7.282    43.0
   0.165    1331   7.514   7.655    44.1
    0.16    1290   7.749   8.060    45.2
   0.155    1250   7.999   8.500    46.4
    0.15    1210   8.266   9.016    47.6
   0.145    1169   8.551   9.582    48.8
    0.14    1129   8.856   10.21    50.2
   0.135    1089   9.184   10.84    51.6
    0.13    1049   9.537   11.51    53.1
   0.125    1008   9.919   12.24    54.7
