;UO 
;UO Be.ASC: Values of n and k for polycrystalline beryllium from 
;UO various references in HOCII (pg. 428).  References are A, 19. 
;UO 
;UO From HANDBOOK OF OPTICAL CONSTANTS IN SOLIDS II edited by Edward D.
;UO Palik. Copyright (c) 1991 by Academic Press, Inc. Reproduced by
;UO permission of the publisher.
;UO -------------------------------------------------------------
;UO     eV     cm-1         um            n             k 
;UO -------------------------------------------------------------
;N  5
;L  Energy[eV]  Wavelength[cm-1]  Wavelength[um]  n  k  
  10000. 80655000. 1.240E-04 9.999966E-01 9.12E-10
   9549. 77017000. 1.298E-04 9.999962E-01 1.12E-09
   9117. 73533000. 1.360E-04 9.999959E-01 1.37E-09
   8706. 70218000. 1.424E-04 9.999955E-01 1.68E-09
   8313. 67049000. 1.491E-04 9.999951E-01 2.06E-09
   7937. 64016000. 1.562E-04 9.999946E-01 2.52E-09
   7579. 61128000. 1.636E-04 9.999940E-01 3.09E-09
   7237. 58370000. 1.713E-04 9.999935E-01 3.78E-09
   6910. 55733000. 1.794E-04 9.999928E-01 4.64E-09
   6598. 53216000. 1.879E-04 9.999922E-01 5.68E-09
   6300. 50813000. 1.968E-04 9.999914E-01 6.89E-09
   6015. 48514000. 2.061E-04 9.999060E-01 8.34E-09
   5744. 46328000. 2.159E-04 9.999896E-01 1.01E-08
   5484. 44231000. 2.261E-04 9.999887E-01 1.22E-08
   5237. 42239000. 2.367E-04 9.999875E-01 1.48E-08
   5000. 40328000. 2.480E-04 9.999864E-01 1.78E-08
   4775. 38513000. 2.597E-04 9.999850E-01 2.15E-08
   4559. 36771000. 2.720E-04 9.999835E-01 2.60E-08
   4353. 35109000. 2.848E-04 9.999819E-01 3.14E-08
   4157. 33528000. 2.983E-04 9.999802E-01 3.79E-08
   3969. 32012000. 3.124E-04 9.999783E-01 4.57E-08
   3790. 30568000. 3.271E-04 9.999762E-01 5.53E-08
   3619. 29189000. 3.426E-04 9.999739E-01 6.71E-08
   3455. 27866000. 3.589E-04 9.999713E-01 8.15E-08
   3299. 26608000. 3.758E-04 9.999685E-01 9.89E-08
   3150. 25406000. 3.936E-04 9.999655E-01 1.20E-07
   3008. 24261000. 4.122E-04 9.999621E-01 1.46E-07
   2872. 23164000. 4.317E-04 9.999585E-01 1.77E-07
   2742. 22116000. 4.522E-04 9.999544E-01 2.14E-07
   2619. 21124000. 4.734E-04 9.999499E-01 2.58E-07
   2500. 20164000. 4.959E-04 9.999450E-01 3.11E-07
   2387. 19252000. 5.194E-04 9.999397E-01 3.74E-07
   2280. 18389000. 5.438E-04 9.999338E-01 4.50E-07
   2177. 17559000. 5.695E-04 9.999273E-01 5.42E-07
   2078. 16760000. 5.967E-04 9.999203E-01 6.46E-07
   1985. 16090000. 6.246E-04 9.999125E-01 7.70E-07
   1895. 15284000. 6.543E-04 9.999039E-01 9.18E-07
   1809. 14591000. 6.854E-04 9.99895E-01 1.09E-06
   1728. 13937000. 7.175E-04 9.99884E-01 1.29E-06
   1650. 13308000. 7.514E-04 9.99873E-01 1.52E-06
   1575. 12703000. 7.872E-04 9.99860E-01 1.78E-06
   1504. 12131000. 8.244E-04 9.99847E-01 2.10E-06
   1436. 11582000. 8.634E-04 9.99832E-01 2.52E-06
   1371. 11058900. 9.043E-04 9.99815E-01 3.04E-06
   1309. 10558000. 9.472E-04 9.99797E-01 3.66E-06
   1250. 10082000. 9.919E-04 9.99777E-01 4.42E-06
   1194. 9630200. 1.038E-03 9.99755E-01 5.33E-06
   1140. 9194700. 1.088E-03 9.99730E-01 6.42E-06
   1088. 8775300. 1.140E-03 9.99704E-01 7.75E-06
   1039. 8380100. 1.193E-03 9.99674E-01 9.34E-06
    992. 8001000. 1.250E-03 9.99642E-01 1.13E-05
    948. 7646100. 1.308E-03 9.99607E-01 1.35E-05
    905. 7299300. 1.370E-03 9.99568E-01 1.63E-05
    864. 6968600. 1.435E-03 9.99525E-01 1.95E-05
    825. 6654000. 1.503E-03 9.99477E-01 2.34E-05
    788. 6355600. 1.573E-03 9.99425E-01 2.81E-05
    752. 6065300. 1.649E-03 9.99368E-01 3.37E-05
    718. 5791000. 1.727E-03 9.99305E-01 4.05E-05
    686. 5532900. 1.807E-03 9.99236E-01 4.82E-05
    655. 5282900. 1.893E-03 9.99159E-01 5.79E-05
    625. 5040900. 1.984E-03 9.99075E-01 6.96E-05
    611. 4928000. 2.029E-03 9.99030E-01 7.61E-05
    597. 4815100. 2.077E-03 9.9898E-01 8.32E-05
    583. 4702200. 2.127E-03 9.9893E-01 9.09E-05
    570. 4597300. 2.175E-03 9.9888E-01 9.94E-05
    544. 4387600. 2.279E-03 9.9877E-01 1.19E-04
    520. 4194100. 2.384E-03 9.9865E-01 1.42E-04
    496. 4000500. 2.500E-03 9.9851E-01 1.69E-04
    474. 3823000. 2.616E-03 9.9836E-01 2.01E-04
    452. 3645600. 2.743E-03 9.9820E-01 2.40E-04
    432. 3484300. 2.870E-03 9.9802E-01 2.86E-04
    413. 3331100. 3.002E-03 9.9783E-01 3.41E-04
    394. 3177800. 3.147E-03 9.9762E-01 4.06E-04
    376. 3032600. 3.297E-03 9.9739E-01 4.81E-04
    359. 2895500. 3.454E-03 9.9713E-01 5.68E-04
    343. 2766500. 3.615E-03 9.9686E-01 6.71E-04
    327. 2637400. 3.792E-03 9.9655E-01 7.92E-04
    313. 2524500. 3.961E-03 9.9622E-01 9.36E-04
    300. 2419700. 4.133E-03 9.96E-01 1.11E-03
    299. 2411600. 4.147E-03 9.9586E-01 1.11E-03
    290. 2330000. 4.275E-03 9.96E-01 1.24E-03
    280. 2258300. 4.428E-03 9.95E-01 1.40E-03
    270. 2177700. 4.592E-03 9.95E-01 1.58E-03
    260. 2097000. 4.769E-03 9.95E-01 1.79E-03
    250. 2016400. 4.959E-03 9.94E-01 2.04E-03
    240. 1935700. 5.166E-03 9.94E-01 2.34E-03
    230. 1855100. 5.390E-03 9.94E-01 2.69E-03
    220. 1774400. 5.636E-03 9.93E-01 3.12E-03
    210. 1693800. 5.904E-03 9.92E-01 3.65E-03
    200. 1613100. 6.199E-03 9.92E-01 4.29E-03
    190. 1532400. 6.525E-03 9.91E-01 5.09E-03
    180. 1451800. 6.888E-03 9.91E-01 6.09E-03
    170. 1371100. 7.293E-03 9.90E-01 7.37E-03
    160. 1290500. 7.749E-03 9.89E-01 9.02E-03
    150. 1209800. 8.265E-03 9.89E-01 1.12E-02
    140. 1129200. 8.856E-03 9.89E-01 1.41E-02
    130. 1048500. 9.537E-03 9.91E-01 1.80E-02
    129. 1040500. 9.611E-03 9.93E-01 1.84E-02
    128. 1032400. 9.686E-03 9.93E-01 1.90E-02
    127. 1024300. 9.762E-03 9.93E-01 1.95E-02
    126. 1016300. 9.840E-03 9.94E-01 1.99E-02
    125. 1008200. 9.918E-03 9.95E-01 2.00E-02
    124. 1000100. 9.998E-03 9.95E-01 2.02E-02
    123. 992060. 1.008E-02 9.96E-01 2.04E-02
    122. 983990. 1.016E-02 9.97E-01 2.05E-02
    121. 975920. 1.025E-02 9.98E-01 2.05E-02
    120. 967860. 1.033E-02 9.99E-01 2.04E-02
    119. 959790. 1.042E-02 1.00E+00 2.04E-02
    118. 951730. 1.051E-02 1.00E+00 1.99E-02
    117. 943664. 1.060E-02 1.00E+00 1.85E-02
    116. 935600. 1.069E-02 1.00E+00 1.79E-02
    115. 927530. 1.078E-02 1.01E+00 1.74E-02
    114. 919470. 1.088E-02 1.01E+00 1.88E-02
    113. 911400. 1.097E-02 1.01E+00 1.32E-02
    112. 903340. 1.107E-02 1.01E+00 4.87E-03
    111. 895270. 1.117E-02 1.01E+00 1.49E-03
    110. 887200. 1.127E-02 1.00E+00 9.43E-04
    105. 846880. 1.181E-02 9.97E-01 1.01E-03
    100. 806550. 1.240E-02 9.93E-01 1.18E-03
     95. 766220. 1.305E-02 9.89E-01 1.39E-03
     90. 725900. 1.378E-02 9.86E-01 1.66E-03
     85. 685570. 1.459E-02 9.83E-01 2.00E-03
     80. 645240. 1.550E-02 9.79E-01 2.42E-03
     75. 604910. 1.653E-02 9.74E-01 2.98E-03
     70. 564580. 1.771E-02 9.69E-01 3.71E-03
     65. 524260. 1.907E-02 9.63E-01 4.72E-03
     60. 483930. 2.066E-02 9.55E-01 6.09E-03
     55. 443600. 2.254E-02 9.45E-01 8.08E-03
     50. 403270. 2.480E-02 9.32E-01 1.10E-02
     45. 362950. 2.755E-02 9.14E-01 1.54E-02
     40. 322620. 3.100E-02 8.89E-01 2.24E-02
     35. 282290. 3.542E-02 8.54E-01 3.47E-02
     30. 241960. 4.133E-02 8.00E-01 5.65E-02
     29. 233900. 4.275E-02 7.86E-01 6.35E-02
     28. 225830. 4.428E-02 7.70E-01 7.05E-02
     27. 217770. 4.592E-02 7.53E-01 8.00E-02
     26. 209700. 4.769E-02 7.34E-01 8.95E-02
    25.5 205670. 4.862E-02 7.22E-01 9.50E-02
    25.0 201640. 4.959E-02 7.10E-01 1.02E-01
    24.5 197600. 5.060E-02 6.97E-01 1.08E-01
    24.0 193570. 5.166E-02 6.84E-01 1.15E-01
    23.5 189540. 5.276E-02 6.68E-01 1.22E-01
    23.0 185510. 5.390E-02 6.53E-01 1.35E-01
    22.5 181470. 5.510E-02 6.32E-01 1.47E-01
    22.0 177440. 5.635E-02 6.11E-01 1.60E-01
    21.5 173410. 5.767E-02 5.83E-01 1.72E-01
    21.0 169380. 5.904E-02 5.55E-01 1.90E-01
    20.5 165340. 6.048E-02 5.26E-01 2.03E-01
    20.0 161310. 6.199E-02 4.96E-01 2.20E-01
    19.5 157280. 6.358E-02 4.68E-01 2.42E-01
    19.0 153240. 6.525E-02 4.36E-01 2.70E-01
    18.5 149210. 6.702E-02 4.07E-01 2.95E-01
    18.0 145180. 6.888E-02 3.82E-01 3.25E-01
    17.5 141150. 7.085E-02 3.61E-01 3.72E-01
    17.0 137110. 7.293E-02 3.42E-01 4.21E-01
    16.5 138080. 7.514E-02 3.26E-01 4.73E-01
    16.0 129050. 7.749E-02 3.12E-01 5.27E-01
    15.5 125020. 7.999E-02 3.00E-01 5.85E-01
    15.0 120980. 8.265E-02 2.93E-01 6.45E-01
    14.5 116950. 8.550E-02 2.87E-01 7.07E-01
    14.0 112920. 8.856E-02 2.84E-01 7.72E-01
    13.5 108880. 9.184E-02 2.83E-01 8.41E-01
    13.0 104850. 9.537E-02 2.84E-01 9.13E-01
    12.5 100820. 9.918E-02 2.87E-01 9.91E-01
    12.0  96786. 1.033E-01 2.98E-01 1.07E+00
    11.5  92753. 1.078E-01 3.09E-01 1.16E+00
    11.0  88720. 1.127E-01 3.24E-01 1.25E+00
    10.5  84688. 1.181E-01 3.45E-01 1.35E+00
    10.0  80655. 1.240E-01 3.73E-01 1.45E+00
     9.8  79042. 1.265E-01 3.85E-01 1.50E+00
     9.6  77429. 1.291E-01 3.98E-01 1.54E+00
     9.4  75816. 1.319E-01 4.12E-01 1.59E+00
     9.2  74202. 1.348E-01 4.27E-01 1.64E+00
     9.0  72589. 1.378E-01 4.45E-01 1.69E+00
     8.8  70976. 1.409E-01 4.63E-01 1.75E+00
     8.6  69363. 1.442E-01 4.90E-01 1.81E+00
     8.4  67750. 1.476E-01 5.18E-01 1.87E+00
     8.2  66137. 1.512E-01 5.51E-01 1.92E+00
     8.0  64524. 1.550E-01 5.88E-01 1.98E+00
     7.8  62911. 1.589E-01 6.28E-01 2.04E+00
     7.6  61298. 1.631E-01 6.71E-01 2.08E+00
     7.4  59684. 1.675E-01 7.07E-01 2.13E+00
     7.2  58071. 1.722E-01 7.44E-01 2.18E+00
     7.0  56458. 1.771E-01 7.78E-01 2.23E+00
     6.8  54845. 1.823E-01 8.05E-01 2.28E+00
     6.6  53232. 1.878E-01 8.25E-01 2.34E+00
     6.4  51619. 1.937E-01 8.37E-01 2.42E+00
     6.2  50006. 2.000E-01 8.44E-01 2.52E+00
     6.0  48393. 2.066E-01 8.49E-01 2.64E+00
     5.8  46780. 2.138E-01 8.21E-01 2.90E+00
     5.6  45169. 2.214E-01 1.08E+00 3.11E+00
     5.4  43555. 2.296E-01 1.31E+00 3.23E+00
     5.2  41942. 2.384E-01 1.54E+00 3.30E+00
     5.0  40329. 2.480E-01 1.78E+00 3.32E+00
     4.8  38716. 2.583E-01 1.99E+00 3.29E+00
     4.6  37103. 2.695E-01 2.17E+00 3.22E+00
     4.4  35490. 2.818E-01 2.30E+00 3.15E+00
     4.2  33876. 2.952E-01 2.39E+00 3.10E+00
     4.0  32263. 3.100E-01 2.47E+00 3.08E+00
     3.8  30650. 3.263E-01 2.55E+00 3.08E+00
     3.6  29037. 3.444E-01 2.64E+00 3.08E+00
     3.4  27424. 3.646E-01 2.73E+00 3.10E+00
     3.2  25811. 3.874E-01 2.84E+00 3.12E+00
     3.0  24198. 4.133E-01 2.95E+00 3.14E+00
     2.8  22584. 4.428E-01 3.07E+00 3.16E+00
     2.6  20971. 4.768E-01 3.19E+00 3.16E+00
     2.4  19358. 5.166E-01 3.30E+00 3.18E+00
     2.2  17745. 5.635E-01 3.39E+00 3.17E+00
     2.0  16132. 6.199E-01 3.46E+00 3.18E+00
     1.8  14518. 6.888E-01 3.47E+00 3.23E+00
     1.6  12905. 7.749E-01 3.44E+00 3.35E+00
     1.4  11292. 8.856E-01 3.35E+00 3.55E+00
     1.2   9679. 1.033E+00 3.26E+00 3.96E+00
     1.0   8066. 1.240E+00 3.09E+00 4.51E+00
     0.9   7259. 1.378E+00 2.87E+00 5.02E+00
     0.8   6452. 1.550E+00 2.74E+00 5.66E+00
     0.7   5646. 1.771E+00 2.55E+00 6.64E+00
     0.6   4839. 2.066E+00 2.41E+00 7.88E+00
     0.5   4033. 2.480E+00 2.14E+00 9.67E+00
     0.4   3226. 3.099E+00 2.07E+00 1.26E+01
     0.3   2420. 4.133E+00 2.43E+00 1.73E+01
     0.2   1613. 6.199E+00 3.66E+00 2.67E+01
     0.1   806.5 1.240E+01 1.13E+01 5.01E+01
     0.0  9725.9 1.378E+01 1.27E+01 5.08E+01
     0.0  8645.2 1.550E+01 1.46E+01 6.04E+01
     0.0  7564.6 1.771E+01 1.70E+01 6.76E+01
     0.0  6483.9 2.066E+01 1.99E+01 7.71E+01
     0.0  5403.3 2.480E+01 2.47E+01 9.17E+01
     0.0  4322.6 3.100E+01 3.74E+01 1.10E+02
     0.0  3242.0 4.133E+01 5.19E+01 1.32E+02
     0.0  2161.3 6.199E+01 8.61E+01 1.57E+02
