;UO 
;UO BeO-cer.ASC:  Values of n and k for ceramic beryllium oxide from
;UO references in HOCII (pg. 811).  Reference is 8. 
;UO 
;UO From HANDBOOK OF OPTICAL CONSTANTS IN SOLIDS II edited by Edward D.
;UO Palik. Copyright (c) 1991 by Academic Press, Inc. Reproduced by
;UO permission of the publisher.
;UO --------------------------------------------------------------
;UO   eV        cm-1     um        n         k 
;UO --------------------------------------------------------------	
;N  5
;L  Energy[eV]  Wavelength[cm-1]  Wavelength[um]  n  k  
  0.2460  1983.5   5.042  1.4726  0.1125
  0.2226  1795.2   5.570  1.4255  0.0735
  0.2015  1624.8   6.155  1.3571  0.0743
  0.1917  1545.8   6.469  1.3150  0.0697
  0.1823  1470.5   6.800  1.2617  0.0586
  0.1787  1441.5   6.937  1.2132  0.0544
  0.1779  1434.3   6.972  1.1968  0.0611
  0.1761  1420.1   7.042  1.1711  0.0831
  0.1752  1413.0   7.077  1.1636  0.1006
  0.1735  1399.0   7.148  1.1714  0.1354
  0.1726  1392.0   7.184  1.1838  0.1435
  0.1718  1385.1   7.220  1.1972  0.1430
  0.1701  1371.4   7.292  1.2040  0.1259
  0.1692  1364.5   7.329  1.2002  0.1185
  0.1675  1351.0   7.402  1.1900  0.1087
  0.1667  1344.3   7.439  1.1850  0.1058
  0.1650  1330.9   7.514  1.1744  0.0969
  0.1642  1324.3   7.551  1.1670  0.0916
  0.1626  1311.2   7.627  1.1469  0.0822
  0.1618  1304.6   7.665  1.1369  0.0802
  0.1602  1291.7   7.742  1.1169  0.0786
  0.1594  1285.3   7.780  1.1072  0.0760
  0.1578  1272.5   7.859  1.0858  0.0695
  0.1562  1259.9   7.937  1.0621  0.0638
  0.1554  1253.6   7.977  1.0484  0.0621
  0.1539  1241.2   8.057  1.0180  0.0607
  0.1524  1228.9   8.137  0.9900  0.0633
  0.1516  1222.7   8.179  0.9770  0.0623
  0.1501  1210.6   8.260  0.9476  0.0632
  0.1494  1204.6   8.302  0.9347  0.0604
  0.1479  1192.6   8.385  0.8996  0.0553
  0.1464  1180.8   8.469  0.8586  0.0512
  0.1457  1174.9   8.511  0.8354  0.0505
  0.1442  1163.3   8.596  0.7874  0.0523
  0.1428  1151.7   8.683  0.7388  0.0555
  0.1414  1140.3   8.770  0.6778  0.0587
  0.1393  1123.3   8.902  0.5733  0.0678
  0.1379  1112.2   8.991  0.4797  0.0777
  0.1365  1101.2   9.081  0.3590  0.1216
  0.1352  1090.2   9.173  0.2469  0.2173
  0.1345  1084.8   9.218  0.2098  0.2794
  0.1332  1074.0   9.311  0.1602  0.4103
  0.1319  1063.4   9.404  0.1463  0.5277
  0.1305  1052.8   9.498  0.1507  0.6246
  0.1293  1042.4   9.593  0.1531  0.7041
  0.1280  1032.0   9.690  0.1510  0.7783
  0.1267  1021.8   9.787  0.1466  0.8535
  0.1254  1011.6   9.885  0.1453  0.9309
  0.1242  1001.6   9.984  0.1488  1.0080
  0.1230   991.7   10.08  0.1564  1.0832
  0.1217   981.8   10.19  0.1669  1.1556
  0.1205   972.1   10.29  0.1791  1.2248
  0.1193   962.4   10.39  0.1911  1.2919
  0.1182   952.9   10.49  0.2032  1.3580
  0.1170   943.4   10.60  0.2151  1.4235
  0.1152   929.4   10.76  0.2320  1.5215
  0.1141   920.2   10.87  0.2424  1.5876
  0.1130   911.0   10.98  0.2525  1.6550
  0.1118   902.0   11.09  0.2622  1.7242
  0.1107   893.0   11.20  0.2704  1.7957
  0.1091   879.8   11.37  0.2804  1.9097
  0.1080   871.0   11.48  0.2872  1.9938
  0.1069   862.4   11.60  0.2959  2.0818
  0.1054   849.6   11.77  0.3125  2.2235
  0.1043   841.2   11.89  0.3224  2.3282
  0.1033   832.8   12.01  0.3359  2.4419
  0.1017   820.4   12.19  0.3630  2.6336
  0.1007   812.3   12.31  0.3912  2.7791
 0.09922   800.2   12.50  0.4551  3.0236
 0.09825   792.3   12.62  0.5184  3.2061
 0.09678   780.5   12.81  0.6559  3.5065
 0.09583   772.8   12.94  0.7918  3.7230
 0.09440   761.3   13.14  1.0695  4.0385
 0.09300   750.0   13.33  1.4092  4.3319
 0.09208   742.6   13.47  1.6565  4.5246
 0.09071   731.5   13.67  2.1243  4.8910
 0.08937   720.7   13.88  2.9343  5.2651
 0.08804   710.0   14.08  4.1266  5.1834
 0.08673   699.4   14.30  5.1068  4.3753
 0.08587   692.5   14.44  5.4389  3.7439
 0.08459   682.2   14.66  5.6595  2.8332
 0.08334   672.1   14.88  5.5384  2.0507
 0.08169   658.8   15.18  5.1446  1.3233
 0.08048   649.0   15.41  4.8086  1.0489
 0.07929   639.4   15.64  4.5546  0.8448
 0.07811   629.9   15.88  4.3584  0.7298
 0.07694   620.5   16.12  4.1815  0.6166
 0.07580   611.3   16.36  4.0367  0.5445
 0.07467   602.2   16.61  3.9054  0.4786
 0.07320   590.3   16.94  3.7442  0.4173
 0.07212   581.6   17.19  3.6485  0.3993
 0.07069   570.1   17.54  3.5387  0.3662
 0.06964   561.6   17.81  3.4728  0.3566
 0.06826   550.5   18.17  3.3931  0.3382
 0.06691   539.6   18.53  3.3361  0.3238
 0.06592   531.6   18.81  3.2978  0.3091
 0.06462   521.1   19.19  3.2464  0.2892
 0.06335   510.8   19.57  3.2034  0.2701
 0.06209   500.7   19.97  3.1595  0.2499
 0.06086   490.8   20.37  3.1129  0.2375
 0.05967   481.2   20.78  3.0734  0.2323
 0.05819   469.3   21.31  3.0375  0.2277
 0.05704   460.0   21.74  3.0179  0.2199
 0.05591   450.9   22.18  2.9961  0.2071
 0.05454   439.8   22.74  2.9683  0.1928
 0.05320   429.0   23.31  2.9376  0.1801
 0.05214   420.5   23.78  2.9165  0.1718
 0.05086   410.2   24.38  2.8905  0.1665
 0.04961   400.1   24.99  2.8683  0.1602
 0.04838   390.2   25.63  2.8485  0.1564
 0.04723   380.9   26.25  2.8327  0.1522
 0.04581   369.4   27.07  2.8138  0.1457
 0.04468   360.3   27.75  2.8009  0.1397
 0.04357   351.4   28.46  2.7869  0.1360
 0.04209   339.4   29.46  2.7707  0.1298
 0.04104   331.0   30.21  2.7599  0.1255
 0.03963   319.6   31.29  2.7459  0.1198
 0.03846   310.2   32.25  2.7348  0.1151
 0.03715   299.6   33.38  2.7227  0.1101
 0.03605   290.7   34.40  2.7131  0.1061
 0.03482   280.8   35.61  2.7027  0.1018
 0.03346   269.8   37.06  2.6917  0.0973
 0.03230   260.5   38.39  2.6828  0.0938
 0.03104   250.3   39.95  2.6735  0.0903
 0.02982   240.5   41.58  2.6650  0.0871
 0.02852   230.0   43.48  2.6562  0.0841
 0.02740   221.0   45.25  2.6491  0.0819
 0.02606   210.2   47.57  2.6410  0.0798
 0.02480   200.0   50.00  2.6336  0.0784
 0.02360   190.3   52.55  2.6270  0.0779
 0.02244   181.0   55.25  2.6208  0.0799
