;UO 
;UO C-diamon.ASC: Values of n and k for cubic diamond from various
;UO references in HOCI (pg. 670). References are 1, 2, 8, 10, 15, 24.
;UO 
;UO Copyright (c) 1995 by the Optical Society of America.  Some data
;UO from HANDBOOK OF OPTICAL CONSTANTS IN SOLIDS edited by Edward D.
;UO Palik. Copyright (c) 1985 by Academic Press, Inc. Reproduced by
;UO permission of the publisher.
;UO --------------------------------------------------------------- 
;UO    eV     cm-1     um         n         nc       k 
;UO ---------------------------------------------------------------	
;N  6
;L  Energy[eV]  Wavelength[cm-1]  Wavelength[um]  n  nc  k  
    30.0  241970 0.04133   0.493 -0.0001   0.490
    29.5  237930 0.04203   0.493 -0.0001   0.521
    29.0  233900 0.04275   0.494 -0.0001   0.552
    28.5  229870 0.04350   0.496 -0.0001   0.584
    28.0  225830 0.04428   0.501 -0.0001   0.616
    27.5  221800 0.04508   0.508 -0.0001   0.648
    27.0  217770 0.04592   0.516 -0.0001   0.679
    26.5  213740 0.04678   0.527 -0.0001   0.708
    26.0  209700 0.04769   0.538 -0.0001   0.736
    25.5  205670 0.04862   0.550 -0.0001   0.763
    25.0  201640 0.04959   0.562 -0.0001   0.787
    24.5  197600 0.05060   0.574 -0.0001   0.810
    24.0  193570 0.05166   0.586 -0.0001   0.829
    23.5  189540 0.05276   0.595 -0.0001   0.843
    23.0  185510 0.05391   0.597 -0.0001   0.850
    22.5  181470 0.05510   0.579 -0.0001   0.846
    22.0  177440 0.05635   0.518 -0.0001   0.888
    21.5  173410 0.05767   0.483 -0.0001   0.969
    21.0  169380 0.05904   0.487 -0.0001   1.052
    20.5  165340 0.06048   0.503 -0.0001   1.130
    20.0  161310 0.06199   0.527 -0.0001   1.203
    19.5  157280 0.06358   0.557 -0.0001   1.273
    19.0  153240 0.06525   0.589 -0.0001   1.341
    18.5  149210 0.06702   0.626 -0.0001   1.408
    18.0  145180 0.06888   0.665 -0.0001   1.476
    17.5  141150 0.07085   0.707 -0.0001   1.546
    17.0  137110 0.07293   0.753 -0.0001   1.619
    16.5  133080 0.07514   0.805 -0.0001   1.692
    16.0  129050 0.07749   0.861 -0.0001   1.767
    15.5  125020 0.07999   0.917 -0.0001   1.845
    15.0  120980 0.08266   0.972 -0.0001   1.929
   14.75  118970 0.08405   0.994 -0.0001   1.978
    14.5  116950 0.08551   1.018 -0.0001   2.034
   14.25  114930 0.08700   1.041 -0.0001   2.102
    14.0  112920 0.08856   1.070 -0.0001   2.178
   13.75  110900 0.09017   1.098 -0.0001   2.268
    13.5  108880 0.09184   1.129 -0.0001   2.379
   13.25  106870 0.09357   1.166 -0.0001   2.522
    13.0  104850 0.09537   1.223 -0.0001   2.722
    12.8  103240 0.09686   1.312 -0.0001   2.953
    12.6  101630 0.09839   1.532 -0.0001   3.265
    12.4  100010 0.09998   1.983 -0.0001   3.382
    12.2   98400  0.1016   2.383 -0.0001   3.354
    12.0   96790  0.1033   2.736 -0.0001   3.228
   11.75   94770  0.1055   3.090 -0.0001   2.986
    11.5   92750  0.1078   3.346 -0.0001   2.693
   11.25   90740  0.1102   3.507 -0.0001   2.380
    11.0   88720  0.1127   3.582 -0.0001   2.078
   10.75   86700  0.1153   3.600 -0.0001   1.813
    10.5   84690  0.1181   3.565 -0.0001   1.581
   10.25   82670  0.1210   3.514 -0.0001   1.403
    10.0   80650  0.1240   3.453 -0.0001   1.258
    9.75   78640  0.1272   3.398 -0.0001   1.147
     9.5   76620  0.1305   3.348 -0.0001   1.055
    9.25   74610  0.1340   3.308 -0.0001   0.978
     9.0   72590  0.1378   3.272 -0.0001   0.910
    8.75   70570  0.1417   3.247 -0.0001   0.855
     8.5   68560  0.1459   3.228 -0.0001   0.806
    8.25   66540  0.1503   3.232 -0.0001   0.765
     8.0   64520  0.1550   3.251 -0.0001   0.712
     7.8   62910  0.1590   3.276 -0.0001   0.659
     7.6   61300  0.1631   3.306 -0.0001   0.592
     7.5   60490  0.1653   3.321 -0.0001   0.553
     7.4   59680  0.1675   3.335 -0.0001   0.515
     7.3   58880  0.1698   3.376 -0.0001   0.473
     7.2   58070  0.1722   3.437 -0.0001   0.388
    7.15   57670  0.1734   3.464 -0.0001   0.307
     7.1   57270  0.1746   3.444 -0.0001   0.210
     7.0   56460  0.1771   3.322 -0.0001 9.35E-2
     6.9   55650  0.1797   3.220 -0.0001 5.24E-2
     6.8   54850  0.1823   3.146 -0.0001 3.44E-2
     6.7   54040  0.1851   3.085 -0.0001 2.20E-2
     6.6   53230  0.1879   3.031 -0.0001 1.47E-2
     6.5   52430  0.1907   2.985 -0.0001 1.10E-2
     6.4   51620  0.1937   2.944 -0.0001 9.87E-3
     6.3   50810  0.1968   2.910 -0.0001 9.74E-3
     6.2   50000  0.2000   2.879 -0.0001 9.30E-3
     6.1   49200  0.2033   2.852 -0.0001 8.62E-3
     6.0   48390  0.2066   2.826 -0.0001 7.99E-3
     5.8   46780  0.2138   2.780 -0.0001 5.02E-3
     5.6   45170  0.2214   2.740 -0.0001 1.48E-3
    5.55   44760  0.2234 -0.0001 -0.0001 5.48E-4
     5.5   44360  0.2254 -0.0001 -0.0001 3.41E-5
  5.4739   44149 0.226504  2.7151  2.7029 2.662E-5
    5.45   43960  0.2275 -0.0001 -0.0001 1.48E-5
     5.4   43550  0.2296 -0.0001 -0.0001 1.04E-5
  5.3606   43236 0.231288  2.6950 -0.0001 7.10E-6
    5.35   43150  0.2317 -0.0001 -0.0001 6.45E-6
  5.3413   43080 0.232125  2.6917 -0.0001 7.10E-6
  5.3227   42930 0.232938  2.6881  2.6849 -0.0001
     5.3   42750  0.2339 -0.0001 -0.0001 2.98E-6
     5.0   40000    0.25 -0.0001  2.6383 -0.0001
  4.8187   38865 0.25730  2.6145  2.6205 1.47E-6
  4.5112   36385 0.27484  2.5786 -0.0001 1.29E-6
  4.1596   33549 0.29807  2.5429  2.5465 -0.0001
   4.133   33330    0.30 -0.0001  2.5439 -0.0001
   3.961   31950   0.313 -0.0001 -0.0001 8.97E-7
   3.576   28840  0.3467  2.4954  2.4955 -0.0001
   3.542   28570    0.35 -0.0001  2.4929 -0.0001
   3.434   27690  0.3611  2.4854  2.4849 -0.0001
  3.3924   27361 0.36548 -0.0001 -0.0001 4.65E-7
   3.100   25000    0.40 -0.0001  2.4627 -0.0001
   3.064   24710  0.4047  2.4626  2.4605 3.86E-7
  2.8447   22944 0.43584 -0.0001 -0.0001 3.82E-7
   2.755   22220    0.45 -0.0001  2.4432 -0.0001
  2.6503   21376 0.46782  2.4408  2.4380 -0.0001
  2.5504   20570 0.48614  2.4354  2.4332 -0.0001
   2.480   20000    0.50 -0.0001  2.4299 -0.0001
  2.4379   19663 0.50858  2.4306  2.4280 -0.0001
  2.2705   18312 0.54608  2.4235  2.4210 -0.0001
   2.254   18180    0.55 -0.0001  2.4203 -0.0001
   2.105   16980   0.589  2.4175  2.4147 -0.0001
   2.066   16670    0.60 -0.0001  2.4133 -0.0001
  1.9257   15531 0.64385  2.4111  2.4084 -0.0001
   1.907   15380    0.65 -0.0001  2.4079 -0.0001
  1.8892   15237 0.65629  2.4104  2.4073 -0.0001
   1.771   14290    0.70 -0.0001  2.4036 -0.0001
   1.653   13330    0.75 -0.0001  2.4003 -0.0001
   1.550   12500    0.80 -0.0001  2.3975 -0.0001
   1.459   11760    0.85 -0.0001  2.3953 -0.0001
   1.378   11110    0.90 -0.0001  2.3934 -0.0001
   1.305   11760    0.95 -0.0001  2.3918 -0.0001
   1.240   10000     1.0 -0.0001  2.3905 -0.0001
  0.8266    6667     1.5 -0.0001  2.3837 -0.0001
  0.6199    5000     2.0 -0.0001  2.3813 -0.0001
  0.4959    4000     2.5 -0.0001  2.3801 -0.0001
    0.48    3872   2.583 -0.0001 -0.0001 6.17E-6
    0.47    3791   2.638 -0.0001 -0.0001 1.57E-5
    0.46    3710   2.695 -0.0001 -0.0001 3.22E-5
    0.45    3630   2.755 -0.0001 -0.0001 3.62E-5
    0.44    3549   2.818 -0.0001 -0.0001 3.14E-5
    0.43    3468   2.883 -0.0001 -0.0001 2.87E-5
    0.42    3388   2.952 -0.0001 -0.0001 2.94E-5
  0.4133    3333     3.0 -0.0001  2.3795 -0.0001
    0.41    3307   3.024 -0.0001 -0.0001 3.25E-5
    0.40    3226   3.099 -0.0001 -0.0001 3.58E-5
    0.39    3146   3.179 -0.0001 -0.0001 3.67E-5
    0.38    3065   3.263 -0.0001 -0.0001 3.11E-5
    0.37    2984   3.351 -0.0001 -0.0001 2.80E-5
    0.36    2904   3.444 -0.0001 -0.0001 2.47E-5
    0.35    2823   3.542 -0.0001 -0.0001 2.11E-5
    0.34    2742   3.646 -0.0001 -0.0001 1.89E-5
    0.33    2662   3.757 -0.0001 -0.0001 2.99E-5
    0.32    2581   3.874 -0.0001 -0.0001 1.11E-4
    0.31    2500   3.999 -0.0001  2.3787 1.30E-4
    0.30    2420   4.133 -0.0001 -0.0001 1.32E-4
  0.2955    2379   4.203 -0.0001 -0.0001 1.07E-4
    0.29    2339   4.275 -0.0001 -0.0001 7.82E-5
   0.285    2299   4.350 -0.0001 -0.0001 1.45E-4
    0.28    2258   4.428 -0.0001 -0.0001 2.75E-4
   0.275    2218   4.508 -0.0001 -0.0001 3.52E-4
    0.27    2178   4.592 -0.0001 -0.0001 4.39E-4
  0.2675    2158   4.635 -0.0001 -0.0001 4.79E-4
   0.265    2137   4.679 -0.0001 -0.0001 4.06E-4
  0.2625    2117   4.723 -0.0001 -0.0001 3.38E-4
    0.26    2097   4.768 -0.0001 -0.0001 2.96E-4
   0.255    2057   4.862 -0.0001 -0.0001 3.87E-4
  0.2525    2037   4.910 -0.0001 -0.0001 4.69E-4
    0.25    2016   4.959 -0.0001 -0.0001 5.21E-4
  0.2480    2000     5.0 -0.0001  2.3783 -0.0001
  0.2475    1996   5.009 -0.0001 -0.0001 4.82E-4
   0.245    1976   5.060 -0.0001 -0.0001 4.87E-4
  0.2425    1956   5.113 -0.0001 -0.0001 4.68E-4
    0.24    1936   5.166 -0.0001 -0.0001 3.82E-4
   0.235    1895   5.276 -0.0001 -0.0001 2.90E-4
    0.23    1855   5.391 -0.0001 -0.0001 2.36E-4
  0.2254    1818     5.5 -0.0001 -0.0001  1.4E-4
   0.225    1815   5.510 -0.0001 -0.0001 1.93E-4
    0.22    1774   5.636 -0.0001 -0.0001 1.21E-4
  0.2066    1667     6.0 -0.0001  2.3779  5.7E-5
  0.1907    1538     6.5 -0.0001 -0.0001  3.1E-5
  0.1550    1250     8.0 -0.0001  2.3772 -0.0001
  0.1240    1000    10.0 -0.0001  2.3765 -0.0001
  0.1033   833.3    12.0 -0.0001  2.3757 -0.0001
 0.08856   714.3    14.0 -0.0001  2.3750 -0.0001
 0.07749   625.0    16.0 -0.0001  2.3745 -0.0001
 0.06888   555.6    18.0 -0.0001  2.3741 -0.0001
 0.06199   500.0    20.0 -0.0001  2.3741 -0.0001
