;UO 
;UO C-graphi.ASC: Values of n and k for hexagonal graphite from various
;UO references in HOCII (pg. 455).  References are 12, 17, 21, 22, 26.
;UO 
;UO Copyright (c) 1995 by the Optical Society of America.  Data
;UO from HANDBOOK OF OPTICAL CONSTANTS IN SOLIDS II edited by Edward D.
;UO Palik. Copyright (c) 1991 by Academic Press, Inc. Reproduced by
;UO permission of the publisher.
;UO ------------------------------------------------------------------
;UO   eV     cm-1     um       n(e)   n(e)   k(e)    k(e)   n(o)   k(o)
;UO ------------------------------------------------------------------
;N  9
;L  Energy[eV]  Wavelength[cm-1]  Wavelength[um]  n(e)  n(e)  k(e)  k(e)  n(o)  k(o)  
    40.0 322620. 0.030996    0.91 -0.0001    0.30 -0.0001    0.75    0.10
    39.5 318590. 0.031389    0.89 -0.0001    0.29 -0.0001    0.75    0.10
    39.0 314550. 0.031791    0.88 -0.0001    0.28 -0.0001    0.75    0.10
    38.5 310520. 0.032204    0.86 -0.0001    0.27 -0.0001    0.74    0.10
    38.0 306490. 0.032628    0.85 -0.0001    0.26 -0.0001    0.74    0.10
    37.5 302460. 0.033063    0.85 -0.0001    0.26 -0.0001    0.72    0.10
    37.0 298420. 0.033510    0.85 -0.0001    0.27 -0.0001    0.72    0.10
    36.5 294390. 0.033969    0.85 -0.0001    0.27 -0.0001    0.72    0.10
    36.0 290360. 0.034440    0.84 -0.0001    0.28 -0.0001    0.71    0.10
    35.5 286330. 0.034925    0.85 -0.0001    0.30 -0.0001    0.70    0.10
    35.0 282290. 0.035424    0.86 -0.0001    0.31 -0.0001    0.68    0.10
    34.5 278260. 0.035938    0.88 -0.0001    0.33 -0.0001    0.68    0.10
    34.0 274230. 0.036466    0.89 -0.0001    0.34 -0.0001    0.67    0.12
    33.5 270190. 0.037011    0.90 -0.0001    0.35 -0.0001    0.67    0.12
    33.0 266160. 0.037571    0.91 -0.0001    0.36 -0.0001    0.66    0.12
    32.5 262139. 0.038149    0.92 -0.0001    0.36 -0.0001    0.66    0.12
    32.0 258100. 0.038745    0.93 -0.0001    0.37 -0.0001    0.64    0.13
    31.5 254040. 0.039360    0.94 -0.0001    0.37 -0.0001    0.61    0.13
    31.0 250030. 0.039995    0.95 -0.0001    0.38 -0.0001    0.60    0.14
    30.5 246000. 0.040651    0.97 -0.0001    0.38 -0.0001    0.58    0.16
    30.0 241970. 0.041328    0.99 -0.0001    0.39 -0.0001    0.57    0.16
    29.5 237930. 0.042029    1.01 -0.0001    0.40 -0.0001    0.55    0.17
    29.0 233900. 0.042754    1.02 -0.0001    0.40 -0.0001    0.52    0.19
    28.5 229870. 0.043504    1.04 -0.0001    0.39 -0.0001    0.49    0.21
    28.0 225830. 0.044280    1.05 -0.0001    0.38 -0.0001    0.47    0.24
    27.5 221800. 0.045086    1.06 -0.0001    0.37 -0.0001    0.45    0.27
    27.0 217770. 0.045920    1.07 -0.0001    0.35 -0.0001    0.46    0.31
    26.5 213740. 0.046787    1.06 -0.0001    0.33 -0.0001    0.47    0.35
    26.0 209700. 0.047687    1.05 -0.0001    0.32 -0.0001    0.48    0.38
    25.5 205670. 0.048620    1.03 -0.0001    0.31 -0.0001    0.47    0.43
    25.0 201640. 0.049594    1.02 -0.0001    0.30 -0.0001    0.47    0.47
    24.5 197600. 0.050606    1.00 -0.0001    0.29 -0.0001    0.46    0.51
    24.0 193570. 0.051660    0.99 -0.0001    0.28 -0.0001    0.46    0.54
    23.5 189540. 0.052760    0.97 -0.0001    0.28 -0.0001    0.44    0.56
    23.0 185510. 0.053907    0.95 -0.0001    0.28 -0.0001    0.41    0.60
    22.5 181470. 0.055105    0.93 -0.0001    0.28 -0.0001    0.40    0.66
    22.0 177440. 0.056357    0.91 -0.0001    0.29 -0.0001    0.41    0.70
    21.5 173410. 0.057668    0.88 -0.0001    0.31 -0.0001    0.43    0.76
    21.0 169380. 0.059041    0.84 -0.0001    0.33 -0.0001    0.45    0.82
    20.5 165340. 0.060481    0.81 -0.0001    0.35 -0.0001    0.51    0.92
    20.0 161310. 0.061993    0.77 -0.0001    0.38 -0.0001    0.55    1.01
    19.5 157280. 0.063582    0.74 -0.0001    0.42 -0.0001    0.58    1.05
    19.0 153240. 0.065255    0.71 -0.0001    0.47 -0.0001    0.58    1.07
    18.5 149210. 0.067019    0.71 -0.0001    0.51 -0.0001    0.58    1.10
    18.0 145180. 0.068881    0.77    0.77    0.53    0.75    0.58    1.12
    17.5 141150. 0.070849    0.85    0.81    0.56    0.81    0.58    1.15
    17.0 137110. 0.072932    0.92    0.86    0.60    0.86    0.61    1.25
    16.5 133080. 0.075143    0.99    0.90    0.65    0.87    0.75    1.36
    16.0 129050. 0.077491    1.05    0.91    0.68    0.87    0.98    1.63
    15.5 125020. 0.079990    1.10    0.87    0.71    0.91    1.09    1.92
    15.0 120980. 0.082657    1.10    0.86    0.69    0.97    1.33    2.15
    14.5 116950. 0.085507    1.10    0.91    0.61    1.04    1.84    2.25
    14.0 112920. 0.088561    1.06    0.98    0.48    1.09    2.31    1.50
    13.5 108880. 0.091841    1.02    1.02    0.34    1.14    2.72    1.03
    13.0 104850. 0.095373    1.02    1.02    0.33    1.24    2.67    0.83
    12.5 100820. 0.099188    1.04    1.07    0.37    1.36    2.48    0.70
    12.0  96786.  0.1033    1.06    1.34    0.42    1.66    2.25    0.63
    11.5  92753.  0.1078    1.05    1.63    0.47    1.86    2.03    0.58
    11.0  88720.  0.1127    1.03    2.30    0.52    1.78    1.81    0.57
    10.5  84688.  0.1181    1.02    2.54    0.53    1.34    1.65    0.53
    10.0  80655.  0.1240    0.98    2.68    0.50    0.73    1.52    0.46
     9.5  76622.  0.1305    1.01    2.46    0.39    0.43    1.38    0.37
     9.0  72589.  0.1378    1.05    2.27    0.29    0.31    1.25    0.27
     8.5  68557.  0.1459    1.10    2.13    0.20    0.23    1.10    0.18
     8.0  64524.  0.1550    1.15    1.99    0.12    0.21    0.96    0.15
     7.5  60491.  0.1653    1.18    1.87    0.06    0.19    0.82    0.20
     7.0  56458.  0.1771    1.20    1.73    0.03    0.22    0.65    0.44
     6.5  52426.  0.1907    1.23    1.67    0.01    0.26    0.66    0.84
     6.0  48393.  0.2066    1.27    1.55    0.02    0.34    0.94    1.35
     5.5  44360.  0.2254    1.31    1.48    0.04    0.48    1.25    1.85
     5.0  40327.  0.2480    1.46    1.51 -0.0001    0.71    1.39    2.48
     4.9  39521.  0.2530    1.44 -0.0001 -0.0001 -0.0001    1.66    2.56
     4.8  38714.  0.2583    1.43 -0.0001 -0.0001 -0.0001    1.95    2.65
     4.7  37908.  0.2638    1.42 -0.0001 -0.0001 -0.0001    2.18    2.64
     4.6  37101.  0.2695    1.41 -0.0001 -0.0001 -0.0001    2.38    2.54
     4.5  36295.  0.2755    1.40    1.70 -0.0001    0.84    2.53    2.41
     4.4  35488.  0.2818    1.40 -0.0001 -0.0001 -0.0001    2.64    2.26
     4.3  34681.  0.2883    1.39 -0.0001 -0.0001 -0.0001    2.71    2.10
     4.2  33875.  0.2952    1.38 -0.0001 -0.0001 -0.0001    2.75    1.94
     4.1  33068.  0.3024    1.37 -0.0001 -0.0001 -0.0001    2.75    1.79
     4.0  32262.  0.3100    1.37    1.94 -0.0001    0.83    2.73    1.66
     3.9  31455.  0.3179    1.36 -0.0001 -0.0001 -0.0001    2.69    1.56
     3.8  30649.  0.3263    1.36 -0.0001 -0.0001 -0.0001    2.66    1.49
     3.7  29842.  0.3351    1.36 -0.0001 -0.0001 -0.0001    2.64    1.43
     3.6  29036.  0.3444    1.36 -0.0001 -0.0001 -0.0001    2.63    1.39
     3.5  28229.  0.3542    1.36    2.02 -0.0001    0.69    2.62    1.36
     3.4  27423.  0.3647    1.35 -0.0001 -0.0001 -0.0001    2.62    1.33
     3.3  26616.  0.3757    1.35 -0.0001 -0.0001 -0.0001    2.61    1.31
     3.2  25809.  0.3875    1.35 -0.0001 -0.0001 -0.0001    2.61    1.29
     3.1  25003.  0.4000    1.35 -0.0001 -0.0001 -0.0001    2.62    1.29
     3.0  24196.  0.4133    1.35    2.04 -0.0001    0.62    2.62    1.28
     2.9  23390.  0.4275    1.35 -0.0001 -0.0001 -0.0001    2.63    1.28
     2.8  22583.  0.4428    1.36 -0.0001 -0.0001 -0.0001    2.63    1.28
     2.7  21777.  0.4592    1.36 -0.0001 -0.0001 -0.0001    2.64    1.28
     2.6  20970.  0.4769    1.36 -0.0001 -0.0001 -0.0001    2.64    1.30
     2.5  20164.  0.4959    1.36    2.03 -0.0001    0.64    2.65    1.31
     2.4  19357.  0.5166    1.36 -0.0001 -0.0001 -0.0001    2.66    1.33
     2.3  18551.  0.5391    1.36 -0.0001 -0.0001 -0.0001    2.67    1.34
     2.2  17744.  0.5636    1.36 -0.0001 -0.0001 -0.0001    2.68    1.36
     2.1  16937.  0.5904    1.37 -0.0001 -0.0001 -0.0001    2.70    1.39
    2.00  16131.  0.6199 -0.0001    2.01 -0.0001    0.72    2.86    1.73
    1.90  15324.  0.6526 -0.0001 -0.0001 -0.0001 -0.0001    2.91    1.77
    1.80  14518.  0.6888 -0.0001 -0.0001 -0.0001 -0.0001    2.96    1.81
    1.70  13711.  0.7293 -0.0001 -0.0001 -0.0001 -0.0001    3.01    1.84
    1.60  12905.  0.7749 -0.0001 -0.0001 -0.0001 -0.0001    3.06    1.86
    1.50  12098.  0.8266 -0.0001 -0.0001 -0.0001 -0.0001    3.10    1.90
    1.40  11292.  0.8856 -0.0001 -0.0001 -0.0001 -0.0001    3.14    1.95
    1.30  10485.  0.9537 -0.0001 -0.0001 -0.0001 -0.0001    3.20    2.02
    1.20   9679.   1.033 -0.0001 -0.0001 -0.0001 -0.0001    3.25    2.07
    1.16   9356.   1.069 -0.0001 -0.0001 -0.0001 -0.0001    3.33    2.07
    1.12   9033.   1.107 -0.0001 -0.0001 -0.0001 -0.0001    3.19    2.07
    1.08   8711.   1.148 -0.0001 -0.0001 -0.0001 -0.0001    3.16    2.17
    1.04   8388.   1.192 -0.0001 -0.0001 -0.0001 -0.0001    3.16    2.28
    1.00   8065.   1.240 -0.0001 -0.0001 -0.0001 -0.0001    3.18    2.40
    0.90   7259.   1.378 -0.0001 -0.0001 -0.0001 -0.0001    3.39    2.70
    0.80   6452.   1.550 -0.0001 -0.0001 -0.0001 -0.0001    3.69    2.91
    0.70   5646.   1.771 -0.0001 -0.0001 -0.0001 -0.0001    3.94    3.02
    0.60   4839.   2.066 -0.0001 -0.0001 -0.0001 -0.0001    4.24    3.25
    0.50   4033.   2.480 -0.0001 -0.0001 -0.0001 -0.0001    4.50    3.41
    0.40   3226.   3.100 -0.0001 -0.0001 -0.0001 -0.0001    4.83    3.82
    0.30   2420.   4.133 -0.0001 -0.0001 -0.0001 -0.0001    5.36    4.48
  0.2294   1850.   5.405 -0.0001 -0.0001 -0.0001 -0.0001   5.866   5.124
  0.2232   1800.   5.555 -0.0001 -0.0001 -0.0001 -0.0001   5.923   5.217
  0.2170   1750.   5.714 -0.0001 -0.0001 -0.0001 -0.0001   6.000   5.318
  0.2108   1700.   5.882 -0.0001 -0.0001 -0.0001 -0.0001   6.070   5.420
  0.2046   1650.   6.061 -0.0001 -0.0001 -0.0001 -0.0001   6.129   5.520
  0.2002   1615.   6.192 -0.0001 -0.0001 -0.0001 -0.0001   6.150   5.597
  0.1996   1610.   6.211 -0.0001 -0.0001 -0.0001 -0.0001   6.145   5.611
  0.1990   1605.   6.230 -0.0001 -0.0001 -0.0001 -0.0001   6.135   5.627
  0.1984   1600.   6.250 -0.0001 -0.0001 -0.0001 -0.0001   6.120   5.656
  0.1977   1595.   6.269 -0.0001 -0.0001 -0.0001 -0.0001   6.097   5.721
  0.1971   1590.   6.289 -0.0001 -0.0001 -0.0001 -0.0001   6.131   5.948
  0.1970   1589.   6.293 -0.0001 -0.0001 -0.0001 -0.0001   6.212   6.036
  0.1969   1588.   6.297 -0.0001 -0.0001 -0.0001 -0.0001   6.378   6.094
  0.1967   1587.   6.301 -0.0001 -0.0001 -0.0001 -0.0001   6.590   6.016
  0.1966   1586.   6.305 -0.0001 -0.0001 -0.0001 -0.0001   6.687   5.813
  0.1965   1585.   6.309 -0.0001 -0.0001 -0.0001 -0.0001   6.646   5.644
  0.1959   1580.   6.329 -0.0001 -0.0001 -0.0001 -0.0001   6.371   5.498
  0.1952   1575.   6.349 -0.0001 -0.0001 -0.0001 -0.0001   6.291   5.515
  0.1946   1570.   6.369 -0.0001 -0.0001 -0.0001 -0.0001   6.258   5.530
  0.1922   1550.   6.452 -0.0001 -0.0001 -0.0001 -0.0001   6.217   5.560
  0.1860   1500.   6.666 -0.0001 -0.0001 -0.0001 -0.0001   6.205   5.600
  0.1798   1450.   6.896 -0.0001 -0.0001 -0.0001 -0.0001   6.238   5.663
  0.1736   1400.   7.143 -0.0001 -0.0001 -0.0001 -0.0001   6.323   5.775
  0.1674   1350.   7.407 -0.0001 -0.0001 -0.0001 -0.0001   6.476   5.955
  0.1612   1300.   7.692 -0.0001 -0.0001 -0.0001 -0.0001   6.712   6.218
    0.16   1290.   7.749 -0.0001 -0.0001 -0.0001 -0.0001    6.77    6.29
    0.14   1129.   8.856 -0.0001 -0.0001 -0.0001 -0.0001    6.91    6.63
    0.12    968.   10.33 -0.0001 -0.0001 -0.0001 -0.0001    6.96    7.38
    0.10    806.   12.40   2.410 -0.0001 4.08E-05 -0.0001    7.14    8.75
    0.08    645.   15.50   2.406 -0.0001 3.08E-06 -0.0001    7.68   10.80
    0.06    484.   20.66   2.405 -0.0001 9.77E-07 -0.0001    8.86   14.02
    0.04    323.   31.00   2.405 -0.0001 4.17E-07 -0.0001   11.75   20.00
    0.02    161.   61.99   2.404 -0.0001 1.65E-07 -0.0001   22.42   33.49
