;UO 
;UO C2H4-pol.ASC:  Values of n and k for orthorhombic polyethylene
;UO (C2H4)n from various references in HOCII (pg. 972).  References
;UO are 1, 7, 9, 13, 15, 25, 35, 41. 
;UO 
;UO From HANDBOOK OF OPTICAL CONSTANTS IN SOLIDS II edited by Edward D.
;UO Palik. Copyright (c) 1991 by Academic Press, Inc. Reproduced by
;UO permission of the publisher.
;UO ------------------------------------------------------------------ 
;UO  eV        cm-1     um        n         k         n          k 
;UO ------------------------------------------------------------------	
;N  7
;L  Energy[eV]  Wavelength[cm-1]  Wavelength[um]  n  k  n  k  
    1000 8065500 0.001240 -0.0001 1.8E-05 -0.0001 -0.0001
     900 7258900 0.001378 -0.0001 2.3E-05 -0.0001 -0.0001
     800 6452400 0.001550 -0.0001 4.0E-05 -0.0001 -0.0001
     700 5645800 0.001771 -0.0001 7.0E-05 -0.0001 -0.0001
     600 4839300 0.002066 -0.0001 1.1E-04 -0.0001 -0.0001
     500 4032700 0.002480 -0.0001 2.1E-04 -0.0001 -0.0001
     400 3226200 0.003100 -0.0001 5.0E-04 -0.0001 -0.0001
     300 2419600 0.004133 -0.0001 1.4E-03 -0.0001 -0.0001
     282 2274500 0.004379 -0.0001 1.7E-03 -0.0001 -0.0001
     280 2258300 0.004428 -0.0001 8.6E-05 -0.0001 -0.0001
     200 1613100 0.006199 -0.0001 2.3E-04 -0.0001 -0.0001
     150 1209800 0.008266 -0.0001 6.0E-04 -0.0001 -0.0001
     100  906550 0.01240 -0.0001 2.5E-03 -0.0001 -0.0001
      80  645240 0.01550    0.97 -0.0001 -0.0001 -0.0001
      70  564580 0.01771    0.96 -0.0001 -0.0001 -0.0001
      60  483930 0.02066    0.94 1.38E-02 -0.0001 -0.0001
      50  403270 0.02480    0.92 2.5E-02 -0.0001 -0.0001
      40  322620 0.03100    0.89 5.5E-02 -0.0001 -0.0001
      35  282290 0.03542    0.86 -0.0001 -0.0001 -0.0001
      33  266160 0.03757 -0.0001 -0.0001   0.844   0.113
      32  258100 0.03875 -0.0001 -0.0001   0.839   0.119
      31  250030 0.04000 -0.0001 -0.0001   0.835   0.132
      30  241960 0.04133   0.805   0.130   0.825   0.145
      29  233900 0.04275    0.80 -0.0001   0.818   0.171
      28  225830 0.04428    0.79 -0.0001   0.809   0.185
      27  217770 0.04592   0.785 -0.0001   0.809   0.210
      26  209700 0.04769    0.78 -0.0001   0.804   0.236
      25  201640 0.04959   0.775   0.245   0.803   0.274
      24  193570 0.05166    0.77 -0.0001   0.788   0.317
      23  185510 0.05391    0.77 -0.0001   0.796   0.365
      22  177440 0.05636    0.77 -0.0001   0.795   0.403
      21  169380 0.05904   0.775 -0.0001   0.808   0.439
      20  161310 0.06199    0.78   0.440   0.818   0.489
      19  153240 0.06526    0.81   0.500   0.836   0.538
      18  145180 0.06888    0.83   0.565   0.868   0.594
      17  137110 0.07293    0.88    0.64   0.916   0.655
      16  129050 0.07749    0.96   0.720   0.981   0.723
      15  120980 0.08266    1.03   0.805    1.05   0.798
      14  112920 0.08856    1.18   0.860    1.24   0.887
      13  104850 0.09537    1.35   0.807    1.40   0.849
      12   96786  0.1033    1.52   0.680    1.55   0.746
      11   88720  0.1127    1.55   0.550    1.61   0.622
      10   80655  0.1240    1.53   0.580    1.64   0.610
     9.8   79042  0.1265 -0.0001   0.600 -0.0001 -0.0001
     9.6   77429  0.1292 -0.0001   0.615 -0.0001 -0.0001
     9.4   75816  0.1319 -0.0001   0.635 -0.0001 -0.0001
     9.2   74202  0.1348 -0.0001   0.650 -0.0001 -0.0001
     9.0   72589  0.1378    1.66   0.655   1.758   0.626
    8.85   71379  0.1401 -0.0001 -0.0001   1.810   0.604
     8.8   70976  0.1409 -0.0001   0.640 -0.0001 -0.0001
     8.7   70170  0.1425 -0.0001 -0.0001   1.934   0.565
     8.6   69363  0.1442 -0.0001   0.620 -0.0001 -0.0001
    8.55   68960  0.1450 -0.0001 -0.0001   1.981   0.472
     8.4   67750  0.1476 -0.0001   0.530   2.065   0.380
    8.25   66540  0.1503 -0.0001 -0.0001   2.076   0.318
     8.2   66137  0.1512 -0.0001   0.385 -0.0001 -0.0001
    8.10   65330  0.1531 -0.0001 -0.0001   2.067   0.252
     8.0   64524  0.1550    2.08   0.240 -0.0001 -0.0001
    7.95   64121  0.1560 -0.0001 -0.0001   2.634   0.128
     7.8   62911  0.1590 -0.0001   0.145   1.964 8.15E-02
    7.65   61701  0.1621 -0.0001 -0.0001   1.924 4.67E-02
     7.6   61298  0.1631 -0.0001 8.4E-02 -0.0001 -0.0001
     7.5   60491  0.1653 -0.0001 -0.0001   1.877 3.73E-02
     7.4   59685  0.1675 -0.0001 4.5E-02 -0.0001 -0.0001
    7.35   59281  0.1687 -0.0001 -0.0001   1.809 3.04E-02
     7.2   58071  0.1722 -0.0001 2.5E-02   1.732 2.30E-02
    7.05   56862  0.1759 -0.0001 -0.0001   1.715 1.74E-02
     7.0   56458  0.1771    1.76 1.35E-02 -0.0001 -0.0001
     6.9   55652  0.1797 -0.0001 -0.0001   1.694 8.8E-03
     6.8   54845  0.1823 -0.0001 7.70E-03 -0.0001 -0.0001
    6.75   54442  0.1837 -0.0001 -0.0001   1.661 -0.0001
     6.6   53232  0.1879 -0.0001 4.20E-03   1.643 -0.0001
    6.45   52022  0.1922 -0.0001 -0.0001   1.634 -0.0001
     6.4   51619  0.1937 -0.0001 2.35E-03 -0.0001 -0.0001
     6.3   50813  0.1968 -0.0001 -0.0001   1.619 -0.0001
     6.2   50000  0.2000 -0.0001 1.40E-03 -0.0001 -0.0001
    6.15   49603  0.2016 -0.0001 -0.0001   1.608 -0.0001
     6.0   48393  0.2066    1.65 8.6E-04   1.597 -0.0001
    5.85   47183  0.2119 -0.0001 -0.0001   1.578 -0.0001
     5.8   46780  0.2138 -0.0001 6.3E-04 -0.0001 -0.0001
    5.75   46377  0.2156 -0.0001 -0.0001   1.568 -0.0001
     5.6   45167  0.2214 -0.0001 5.1E-04 -0.0001 -0.0001
    5.55   44763  0.2234 -0.0001 -0.0001   1.559 -0.0001
     5.4   43554  0.2296 -0.0001 4.4E-04   1.549 -0.0001
    5.25   42344  0.2361 -0.0001 -0.0001   1.543 -0.0001
     5.2   41940  0.2384 -0.0001 3.8E-04 -0.0001 -0.0001
     5.1   41134  0.2431 -0.0001 -0.0001   1.533 -0.0001
     5.0   40327  0.2480     1.6 2.5E-04 -0.0001 -0.0001
    4.95   39924  0.2505 -0.0001 -0.0001   1.523 -0.0001
     4.9   39521  0.2530 -0.0001   1E-04 -0.0001 -0.0001
     4.8   38714  0.2583 -0.0001 -0.0001   1.517 -0.0001
     4.7   37908  0.2638 -0.0001   1E-05 -0.0001 -0.0001
    4.65   37504  0.2666 -0.0001 -0.0001   1.513 -0.0001
     4.5   36295  0.2755 -0.0001 -0.0001   1.510 -0.0001
    4.35   35085  0.2850 -0.0001 -0.0001   1.507 -0.0001
    4.20   33875  0.2952 -0.0001 -0.0001   1.505 -0.0001
    4.05   32665  0.3061 -0.0001 -0.0001   1.502 -0.0001
    3.90   31455  0.3179 -0.0001 -0.0001   1.500 -0.0001
    3.75   30245  0.3306 -0.0001 -0.0001   1.498 -0.0001
    3.60   29036  0.3444 -0.0001 -0.0001   1.498 -0.0001
    3.45   27826  0.3594 -0.0001 -0.0001   1.498 -0.0001
    3.30   26616  0.3757 -0.0001 -0.0001   1.498 -0.0001
    3.15   25406  0.3936 -0.0001 -0.0001   1.497 -0.0001
    3.00   24196  0.4133 -0.0001 -0.0001   1.495 -0.0001
    2.85   22987  0.4350 -0.0001 -0.0001   1.495 -0.0001
    2.70   21777  0.4592 -0.0001 -0.0001   1.493 -0.0001
    2.55   20567  0.4862 -0.0001 -0.0001   1.492 -0.0001
    2.40   19357  0.5166 -0.0001 -0.0001   1.490 -0.0001
    2.25   18147  0.5511 -0.0001 -0.0001   1.490 -0.0001
    2.25   18147  0.5511  1.5260 -0.0001  1.4590 2.3E-02
    2.10   16935  0.5904 -0.0001 -0.0001   1.482 -0.0001
    1.95   15728  0.6358 -0.0001 -0.0001   1.480 -0.0001
    1.80   14518  0.6888 -0.0001 -0.0001   1.478 -0.0001
    1.65   13308  0.7514 -0.0001 -0.0001   1.476 -0.0001
    1.50   12098  0.8266 -0.0001 -0.0001   1.471 -0.0001
    1.35   10888  0.9184 -0.0001 -0.0001   1.466 -0.0001
  0.7191    5800   1.724     1.5 5.0E-04 -0.0001 -0.0001
  0.7179    5790   1.727 -0.0001 5.3E-04 -0.0001 -0.0001
  0.7166    5780   1.730 -0.0001 5.7E-04 -0.0001 -0.0001
  0.7154    5770   1.733 -0.0001 6.2E-04 -0.0001 -0.0001
  0.7142    5760   1.736 -0.0001 5.7E-04 -0.0001 -0.0001
  0.7129    5750   1.739 -0.0001 4.8E-04 -0.0001 -0.0001
  0.7117    5740   1.742 -0.0001 4.5E-04 -0.0001 -0.0001
  0.7092    5720   1.748 -0.0001 4.1E-04 -0.0001 -0.0001
  0.7067    5700   1.754 -0.0001 4.1E-04 -0.0001 -0.0001
  0.7042    5680   1.761 -0.0001 4.3E-04 -0.0001 -0.0001
  0.7030    5670   1.764 -0.0001 4.7E-04 -0.0001 -0.0001
  0.7018    5660   1.767 -0.0001 4.8E-04 -0.0001 -0.0001
  0.7005    5650   1.770 -0.0001 4.6E-04 -0.0001 -0.0001
  0.6993    5640   1.773 -0.0001 4.4E-04 -0.0001 -0.0001
  0.6968    5620   1.779 -0.0001 4.1E-04 -0.0001 -0.0001
  0.6943    5600   1.786 -0.0001 4.1E-04 -0.0001 -0.0001
  0.6819    5500   1.818 -0.0001 4.0E-04 -0.0001 -0.0001
  0.6695    5400   1.852 -0.0001 3.8E-04 -0.0001 -0.0001
  0.6571    5300   1.887 -0.0001 3.7E-04 -0.0001 -0.0001
  0.6447    5200   1.923 -0.0001 3.7E-04 -0.0001 -0.0001
  0.6323    5100   1.961 -0.0001 3.8E-04 -0.0001 -0.0001
  0.6199    5000   2.000 -0.0001 3.8E-04 -0.0001 -0.0001
  0.6075    4900   2.041 -0.0001 3.8E-04 -0.0001 -0.0001
  0.5951    4800   2.083 -0.0001 3.8E-04 -0.0001 -0.0001
  0.5827    4700   2.128 -0.0001 3.8E-04 -0.0001 -0.0001
  0.5703    4600   2.174 -0.0001 3.9E-04 -0.0001 -0.0001
  0.5579    4500   2.222 -0.0001 4.0E-04 -0.0001 -0.0001
  0.5555    4480   2.232 -0.0001 4.2E-04 -0.0001 -0.0001
  0.5530    4460   2.242 -0.0001 4.4E-04 -0.0001 -0.0001
  0.5505    4440   2.252 -0.0001 4.6E-04 -0.0001 -0.0001
  0.5480    4420   2.262 -0.0001 5.0E-04 -0.0001 -0.0001
  0.5455    4400   2.273 -0.0001 5.7E-04 -0.0001 -0.0001
  0.5431    4380   2.283 -0.0001 7.1E-04 -0.0001 -0.0001
  0.5406    4360   2.294 -0.0001 9.4E-04 -0.0001 -0.0001
  0.5393    4350   2.299 -0.0001 1.2E-03 -0.0001 -0.0001
  0.5381    4340   2.304 -0.0001 1.9E-03 -0.0001 -0.0001
  0.5369    4330   2.309 -0.0001 2.5E-03 -0.0001 -0.0001
  0.5356    4320   2.315 -0.0001 1.7E-03 -0.0001 -0.0001
  0.5344    4310   2.320 -0.0001 1.0E-03 -0.0001 -0.0001
  0.5331    4300   2.326 -0.0001 1.2E-03 -0.0001 -0.0001
  0.5307    4280   2.336 -0.0001 1.2E-03 -0.0001 -0.0001
  0.5294    4270   2.342 -0.0001 1.3E-03 -0.0001 -0.0001
  0.5282    4260   2.347 -0.0001 1.5E-03 -0.0001 -0.0001
  0.5269    4250   2.353 -0.0001 1.8E-03 -0.0001 -0.0001
  0.5257    4240   2.358 -0.0001 1.2E-03 -0.0001 -0.0001
  0.5232    4220   2.370 -0.0001 1.2E-03 -0.0001 -0.0001
  0.5207    4200   2.381 -0.0001 1.4E-03 -0.0001 -0.0001
  0.5183    4180   2.392 -0.0001 1.4E-03 -0.0001 -0.0001
  0.5170    4170   2.398 -0.0001 1.4E-03 -0.0001 -0.0001
  0.5158    4160   2.404 -0.0001 1.4E-03 -0.0001 -0.0001
  0.5145    4150   2.410 -0.0001 1.4E-03 -0.0001 -0.0001
  0.5133    4140   2.415 -0.0001 1.4E-03 -0.0001 -0.0001
  0.5121    4130   2.421 -0.0001 1.3E-03 -0.0001 -0.0001
  0.5108    4120   2.427 -0.0001 1.4E-03 -0.0001 -0.0001
  0.5096    4110   2.433 -0.0001 1.4E-03 -0.0001 -0.0001
  0.5083    4100   2.439 -0.0001 1.4E-03 -0.0001 -0.0001
  0.5071    4090   2.445 -0.0001 1.1E-03 -0.0001 -0.0001
  0.5059    4080   2.451 -0.0001 1.0E-03 -0.0001 -0.0001
  0.5034    4060   2.463 -0.0001 9.4E-04 -0.0001 -0.0001
  0.5009    4040   2.475 -0.0001 8.6E-04 -0.0001 -0.0001
  0.4984    4020   2.488 -0.0001 8.4E-04 -0.0001 -0.0001
  0.4959    4000   2.500 -0.0001 7.1E-04 -0.0001 -0.0001
  0.4947    3990   2.506 -0.0001 7.3E-04 -0.0001 -0.0001
  0.4935    3980   2.513 -0.0001 7.4E-04 -0.0001 -0.0001
  0.4922    3970   2.519 -0.0001 7.0E-04 -0.0001 -0.0001
  0.4910    3960   2.525 -0.0001 7.2E-04 -0.0001 -0.0001
  0.4885    3940   2.538 -0.0001 7.2E-04 -0.0001 -0.0001
  0.4860    3920   2.551 -0.0001 7.9E-04 -0.0001 -0.0001
  0.4835    3900   2.564 -0.0001 8.1E-04 -0.0001 -0.0001
  0.4811    3880   2.577 -0.0001 8.0E-04 -0.0001 -0.0001
  0.4786    3860   2.591 -0.0001 7.7E-04 -0.0001 -0.0001
  0.4761    3840   2.604 -0.0001 7.4E-04 -0.0001 -0.0001
  0.4736    3820   2.618 -0.0001 7.8E-04 -0.0001 -0.0001
  0.4711    3800   2.632 -0.0001 7.7E-04 -0.0001 -0.0001
  0.4687    3780   2.646 -0.0001 7.3E-04 -0.0001 -0.0001
  0.4662    3760   2.660 -0.0001 7.0E-04 -0.0001 -0.0001
  0.4637    3740   2.674 -0.0001 6.8E-04 -0.0001 -0.0001
  0.4612    3720   2.688 -0.0001 6.9E-04 -0.0001 -0.0001
  0.4587    3700   2.703 -0.0001 7.0E-04 -0.0001 -0.0001
  0.4563    3680   2.717 -0.0001 9.8E-04 -0.0001 -0.0001
  0.4538    3660   2.732 -0.0001 8.0E-04 -0.0001 -0.0001
  0.4525    3650   2.740 -0.0001 8.6E-04 -0.0001 -0.0001
  0.4513    3640   2.747 -0.0001 8.1E-04 -0.0001 -0.0001
  0.4501    3630   2.755 -0.0001 8.0E-04 -0.0001 -0.0001
  0.4488    3620   2.762 -0.0001 7.6E-04 -0.0001 -0.0001
  0.4476    3610   2.770 -0.0001 1.0E-03 -0.0001 -0.0001
  0.4463    3600   2.778 -0.0001 8.6E-04 -0.0001 -0.0001
  0.4439    3580   2.793 -0.0001 6.4E-04 -0.0001 -0.0001
  0.4414    3560   2.809 -0.0001 5.8E-04 -0.0001 -0.0001
  0.4389    3540   2.825 -0.0001 5.5E-04 -0.0001 -0.0001
  0.4364    3520   2.841 -0.0001 5.5E-04 -0.0001 -0.0001
  0.4339    3500   2.857 -0.0001 5.5E-04 -0.0001 -0.0001
  0.4315    3480   2.874 -0.0001 5.9E-04 -0.0001 -0.0001
  0.4290    3460   2.890 -0.0001 6.2E-04 -0.0001 -0.0001
  0.4265    3440   2.907 -0.0001 6.6E-04 -0.0001 -0.0001
  0.4240    3420   2.924 -0.0001 6.4E-04 -0.0001 -0.0001
  0.4215    3400   2.941 -0.0001 6.4E-04 -0.0001 -0.0001
  0.4203    3390   2.950 -0.0001 6.8E-04 -0.0001 -0.0001
  0.4191    3380   2.959 -0.0001 7.2E-04 -0.0001 -0.0001
  0.4178    3370   2.967 -0.0001 7.3E-04 -0.0001 -0.0001
  0.4166    3360   2.976 -0.0001 7.1E-04 -0.0001 -0.0001
  0.4141    3340   2.994 -0.0001 6.8E-04 -0.0001 -0.0001
  0.4116    3320   3.012 -0.0001 6.8E-04 -0.0001 -0.0001
  0.4092    3300   3.030 -0.0001 6.8E-04 -0.0001 -0.0001
  0.4067    3280   3.049 -0.0001 6.8E-04 -0.0001 -0.0001
  0.4042    3260   3.067 -0.0001 7.1E-04 -0.0001 -0.0001
  0.4017    3240   3.086 -0.0001 7.3E-04 -0.0001 -0.0001
  0.3992    3220   3.106 -0.0001 7.6E-04 -0.0001 -0.0001
  0.3968    3200   3.125 -0.0001 7.7E-04 -0.0001 -0.0001
  0.3943    3180   3.145 -0.0001 7.9E-04 -0.0001 -0.0001
  0.3918    3160   3.165 -0.0001 8.6E-04 -0.0001 -0.0001
  0.3893    3140   3.185 -0.0001 9.5E-04 -0.0001 -0.0001
  0.3868    3120   3.205 -0.0001 1.8E-03 -0.0001 -0.0001
  0.3844    3100   3.226 -0.0001 1.5E-03 -0.0001 -0.0001
  0.3819    3080   3.247 -0.0001 2.3E-03 -0.0001 -0.0001
  0.3794    3060   3.268 -0.0001 2.7E-03 -0.0001 -0.0001
  0.3769    3040   3.289 -0.0001 3.1E-03 -0.0001 -0.0001
  0.3744    3020   3.311 -0.0001 3.8E-03 -0.0001 -0.0001
  0.3720    3000   3.333 -0.0001 4.5E-03 -0.0001 -0.0001
  0.3695    2980   3.356 -0.0001 6.1E-03 -0.0001 -0.0001
  0.3670    2960   3.378 -0.0001 9.5E-03 -0.0001 -0.0001
  0.3645    2940   3.401 -0.0001 2.8E-02 -0.0001 -0.0001
  0.3633    2930   3.413 -0.0001 7.3E-02 -0.0001 -0.0001
  0.3620    2920   3.425 -0.0001 1.9E-01 -0.0001 -0.0001
  0.3608    2910   3.436 -0.0001 8.8E-02 -0.0001 -0.0001
  0.3596    2900   3.448 -0.0001 5.2E-02 -0.0001 -0.0001
  0.3583    2890   3.460 -0.0001 4.6E-02 -0.0001 -0.0001
  0.3571    2880   3.472 -0.0001 2.5E-02 -0.0001 -0.0001
  0.3558    2870   3.484 -0.0001 2.2E-02 -0.0001 -0.0001
  0.3546    2860   3.497 -0.0001 3.3E-02 -0.0001 -0.0001
  0.3534    2850   3.509 -0.0001 1.5E-01 -0.0001 -0.0001
  0.3521    2840   3.521 -0.0001 3.6E-02 -0.0001 -0.0001
  0.3509    2830   3.534 -0.0001 1.5E-02 -0.0001 -0.0001
  0.3496    2820   3.546 -0.0001 1.1E-02 -0.0001 -0.0001
  0.3472    2800   3.571 -0.0001 7.8E-03 -0.0001 -0.0001
  0.3447    2780   3.597 -0.0001 3.6E-03 -0.0001 -0.0001
  0.3422    2760   3.623 -0.0001 2.9E-03 -0.0001 -0.0001
  0.3397    2740   3.650 -0.0001 2.6E-03 -0.0001 -0.0001
  0.3372    2720   3.676 -0.0001 2.4E-03 -0.0001 -0.0001
  0.3348    2700   3.703 -0.0001 2.1E-03 -0.0001 -0.0001
  0.3323    2680   3.731 -0.0001 1.8E-03 -0.0001 -0.0001
  0.3310    2670   3.745 -0.0001 2.3E-03 -0.0001 -0.0001
  0.3298    2660   3.759 -0.0001 3.8E-03 -0.0001 -0.0001
  0.3286    2650   3.774 -0.0001 2.4E-03 -0.0001 -0.0001
  0.3273    2640   3.788 -0.0001 2.8E-03 -0.0001 -0.0001
  0.3261    2630   3.802 -0.0001 2.5E-03 -0.0001 -0.0001
  0.3248    2620   3.817 -0.0001 2.5E-03 -0.0001 -0.0001
  0.3224    2600   3.846 -0.0001 1.8E-03 -0.0001 -0.0001
  0.3199    2580   3.876 -0.0001 1.5E-03 -0.0001 -0.0001
  0.3174    2560   3.906 -0.0001 1.4E-03 -0.0001 -0.0001
  0.3162    2550   3.922 -0.0001 1.0E-03 -0.0001 -0.0001
  0.3149    2540   3.937 -0.0001 1.1E-03 -0.0001 -0.0001
  0.3137    2530   3.953 -0.0001 8.5E-04 -0.0001 -0.0001
  0.3124    2520   3.968 -0.0001 1.1E-03 -0.0001 -0.0001
  0.3100    2500   4.000 -0.0001 6.3E-04 -0.0001 -0.0001
  0.3087    2490   4.016 -0.0001 6.1E-04 -0.0001 -0.0001
  0.3075    2480   4.032 -0.0001 6.4E-04 -0.0001 -0.0001
  0.3062    2470   4.049 -0.0001 5.8E-04 -0.0001 -0.0001
  0.3050    2460   4.065 -0.0001 5.1E-04 -0.0001 -0.0001
  0.3025    2440   4.098 -0.0001 5.0E-04 -0.0001 -0.0001
  0.3000    2420   4.132 -0.0001 6.3E-04 -0.0001 -0.0001
  0.2988    2410   4.149 -0.0001 6.3E-04 -0.0001 -0.0001
  0.2976    2400   4.167 -0.0001 5.7E-04 -0.0001 -0.0001
  0.2951    2380   4.202 -0.0001 5.2E-04 -0.0001 -0.0001
  0.2926    2360   4.237 -0.0001 6.7E-04 -0.0001 -0.0001
  0.2914    2350   4.255 -0.0001 1.1E-03 -0.0001 -0.0001
  0.2901    2340   4.274 -0.0001 1.1E-03 -0.0001 -0.0001
  0.2889    2330   4.292 -0.0001 1.1E-03 -0.0001 -0.0001
  0.2876    2320   4.310 -0.0001 9.6E-04 -0.0001 -0.0001
  0.2852    2300   4.348 -0.0001 6.8E-04 -0.0001 -0.0001
  0.2839    2290   4.367 -0.0001 6.6E-04 -0.0001 -0.0001
  0.2827    2280   4.386 -0.0001 7.0E-04 -0.0001 -0.0001
  0.2814    2270   4.405 -0.0001 6.3E-04 -0.0001 -0.0001
  0.2802    2260   4.425 -0.0001 5.1E-04 -0.0001 -0.0001
  0.2790    2250   4.444 -0.0001 5.0E-04 -0.0001 -0.0001
  0.2777    2240   4.464 -0.0001 6.2E-04 -0.0001 -0.0001
  0.2765    2230   4.484 -0.0001 4.5E-04 -0.0001 -0.0001
  0.2752    2220   4.505 -0.0001 5.2E-04 -0.0001 -0.0001
  0.2740    2210   4.525 -0.0001 4.6E-04 -0.0001 -0.0001
  0.2728    2200   4.545 -0.0001 4.6E-04 -0.0001 -0.0001
  0.2715    2190   4.566 -0.0001 4.9E-04 -0.0001 -0.0001
  0.2703    2180   4.587 -0.0001 4.9E-04 -0.0001 -0.0001
  0.2690    2170   4.608 -0.0001 4.9E-04 -0.0001 -0.0001
  0.2678    2160   4.630 -0.0001 5.4E-04 -0.0001 -0.0001
  0.2666    2150   4.651 -0.0001 5.7E-04 -0.0001 -0.0001
  0.2653    2140   4.673 -0.0001 5.3E-04 -0.0001 -0.0001
  0.2641    2130   4.695 -0.0001 4.5E-04 -0.0001 -0.0001
  0.2628    2120   4.717 -0.0001 4.2E-04 -0.0001 -0.0001
  0.2604    2100   4.762 -0.0001 4.3E-04 -0.0001 -0.0001
  0.2579    2080   4.808 -0.0001 4.4E-04 -0.0001 -0.0001
  0.2554    2060   4.854 -0.0001 5.0E-04 -0.0001 -0.0001
  0.2529    2040   4.902 -0.0001 6.9E-04 -0.0001 -0.0001
  0.2517    2030   4.926 -0.0001 8.3E-04 -0.0001 -0.0001
  0.2505    2020   4.950 -0.0001 1.0E-03 -0.0001 -0.0001
  0.2492    2010   4.975 -0.0001 6.2E-04 -0.0001 -0.0001
  0.2480    2000   5.000 -0.0001 5.0E-04 -0.0001 -0.0001
  0.2455    1980   5.051 -0.0001 4.5E-04 -0.0001 -0.0001
  0.2430    1960   5.102 -0.0001 5.3E-04 -0.0001 -0.0001
  0.2418    1950   5.128 -0.0001 5.3E-04 -0.0001 -0.0001
  0.2405    1940   5.155 -0.0001 5.1E-04 -0.0001 -0.0001
  0.2381    1920   5.208 -0.0001 5.5E-04 -0.0001 -0.0001
  0.2368    1910   5.236 -0.0001 6.4E-04 -0.0001 -0.0001
  0.2356    1900   5.263 -0.0001 8.1E-04 -0.0001 -0.0001
  0.2343    1890   5.291 -0.0001 7.3E-04 -0.0001 -0.0001
  0.2331    1880   5.319 -0.0001 4.5E-04 -0.0001 -0.0001
  0.2306    1860   5.376 -0.0001 3.6E-04 -0.0001 -0.0001
  0.2281    1840   5.435 -0.0001 3.9E-04 -0.0001 -0.0001
  0.2269    1830   5.464 -0.0001 4.7E-04 -0.0001 -0.0001
  0.2257    1820   5.495 -0.0001 5.9E-04 -0.0001 -0.0001
  0.2244    1810   5.525 -0.0001 4.9E-04 -0.0001 -0.0001
  0.2232    1800   5.556 -0.0001 4.6E-04 -0.0001 -0.0001
  0.2219    1790   5.587 -0.0001 4.4E-04 -0.0001 -0.0001
  0.2207    1780   5.618 -0.0001 4.3E-04 -0.0001 -0.0001
  0.2195    1770   5.650 -0.0001 4.3E-04 -0.0001 -0.0001
  0.2182    1760   5.682 -0.0001 4.6E-04 -0.0001 -0.0001
  0.2170    1750   5.714 -0.0001 5.4E-04 -0.0001 -0.0001
  0.2157    1740   5.747 -0.0001 6.9E-04 -0.0001 -0.0001
  0.2145    1730   5.780 -0.0001 7.0E-04 -0.0001 -0.0001
  0.2133    1720   5.814 -0.0001 6.2E-04 -0.0001 -0.0001
  0.2120    1710   5.848 -0.0001 5.5E-04 -0.0001 -0.0001
  0.2108    1700   5.882 -0.0001 5.2E-04 -0.0001 -0.0001
  0.2095    1690   5.917 -0.0001 5.2E-04 -0.0001 -0.0001
  0.2083    1680   5.952 -0.0001 5.2E-04 -0.0001 -0.0001
  0.2071    1670   5.988 -0.0001 5.2E-04 -0.0001 -0.0001
  0.2058    1660   6.024 -0.0001 5.4E-04 -0.0001 -0.0001
  0.2046    1650   6.061 -0.0001 6.7E-04 -0.0001 -0.0001
  0.2033    1640   6.098 -0.0001 1.2E-03 -0.0001 -0.0001
  0.2021    1630   6.135 -0.0001 8.8E-04 -0.0001 -0.0001
  0.2009    1620   6.173 -0.0001 8.3E-04 -0.0001 -0.0001
  0.1996    1610   6.211 -0.0001 8.7E-04 -0.0001 -0.0001
  0.1984    1600   6.250 -0.0001 9.2E-04 -0.0001 -0.0001
  0.1971    1590   6.289 -0.0001 9.9E-04 -0.0001 -0.0001
  0.1959    1580   6.329 -0.0001 9.7E-04 -0.0001 -0.0001
  0.1947    1570   6.369 -0.0001 9.0E-04 -0.0001 -0.0001
  0.1934    1560   6.410 -0.0001 9.0E-04 -0.0001 -0.0001
  0.1922    1550   6.452 -0.0001 9.7E-04 -0.0001 -0.0001
  0.1909    1540   6.494 -0.0001 1.1E-03 -0.0001 -0.0001
  0.1897    1530   6.536 -0.0001 1.2E-03 -0.0001 -0.0001
  0.1885    1520   6.579 -0.0001 1.3E-03 -0.0001 -0.0001
  0.1872    1510   6.623 -0.0001 1.6E-03 -0.0001 -0.0001
  0.1860    1500   6.667 -0.0001 2.9E-03 -0.0001 -0.0001
  0.1847    1490   6.711 -0.0001 5.4E-03 -0.0001 -0.0001
  0.1841    1485   6.734 -0.0001 1.7E-02 -0.0001 -0.0001
  0.1835    1480   6.757 -0.0001 4.5E-02 -0.0001 -0.0001
  0.1829    1475   6.780 -0.0001 3.5E-02 -0.0001 -0.0001
  0.1823    1470   6.803 -0.0001 3.0E-02 -0.0001 -0.0001
  0.1816    1465   6.826 -0.0001 5.5E-02 -0.0001 -0.0001
  0.1810    1460   6.849 -0.0001 2.8E-02 -0.0001 -0.0001
  0.1798    1450   6.897 -0.0001 8.5E-03 -0.0001 -0.0001
  0.1785    1440   6.944 -0.0001 5.9E-03 -0.0001 -0.0001
  0.1773    1430   6.993 -0.0001 4.1E-03 -0.0001 -0.0001
  0.1761    1420   7.042 -0.0001 3.0E-03 -0.0001 -0.0001
  0.1748    1410   7.092 -0.0001 2.4E-03 -0.0001 -0.0001
  0.1736    1400   7.143 -0.0001 2.1E-03 -0.0001 -0.0001
  0.1723    1390   7.194 -0.0001 1.2E-03 -0.0001 -0.0001
  0.1711    1380   7.246 -0.0001 1.6E-03 -0.0001 -0.0001
  0.1705    1375   7.273 -0.0001 2.2E-03 -0.0001 -0.0001
  0.1699    1370   7.299 -0.0001 2.9E-03 -0.0001 -0.0001
  0.1692    1365   7.326 -0.0001 2.8E-03 -0.0001 -0.0001
  0.1686    1360   7.353 -0.0001 2.5E-03 -0.0001 -0.0001
  0.1680    1355   7.380 -0.0001 2.4E-03 -0.0001 -0.0001
  0.1674    1350   7.407 -0.0001 2.4E-03 -0.0001 -0.0001
  0.1661    1340   7.463 -0.0001 2.1E-03 -0.0001 -0.0001
  0.1649    1330   7.519 -0.0001 1.5E-03 -0.0001 -0.0001
  0.1637    1320   7.576 -0.0001 1.5E-03 -0.0001 -0.0001
  0.1624    1310   7.634 -0.0001 1.9E-03 -0.0001 -0.0001
  0.1612    1300   7.692 -0.0001 2.0E-03 -0.0001 -0.0001
  0.1599    1290   7.752 -0.0001 1.8E-03 -0.0001 -0.0001
  0.1587    1280   7.813 -0.0001 1.6E-03 -0.0001 -0.0001
  0.1575    1270   7.874 -0.0001 1.3E-03 -0.0001 -0.0001
  0.1562    1260   7.937 -0.0001 1.2E-03 -0.0001 -0.0001
  0.1550    1250   8.000 -0.0001 1.1E-03 -0.0001 -0.0001
  0.1537    1240   8.065 -0.0001 1.0E-03 -0.0001 -0.0001
  0.1525    1230   8.130 -0.0001 1.0E-03 -0.0001 -0.0001
  0.1513    1220   8.197 -0.0001 9.6E-04 -0.0001 -0.0001
  0.1500    1210   8.264 -0.0001 9.2E-04 -0.0001 -0.0001
  0.1488    1200   8.333 -0.0001 8.9E-04 -0.0001 -0.0001
  0.1475    1190   8.403 -0.0001 9.3E-04 -0.0001 -0.0001
  0.1469    1185   8.439 -0.0001 9.1E-04 -0.0001 -0.0001
  0.1463    1180   8.475 -0.0001 9.4E-04 -0.0001 -0.0001
  0.1457    1175   8.511 -0.0001 1.2E-03 -0.0001 -0.0001
  0.1451    1170   8.547 -0.0001 9.9E-04 -0.0001 -0.0001
  0.1444    1165   8.584 -0.0001 9.7E-04 -0.0001 -0.0001
  0.1438    1160   8.621 -0.0001 9.9E-04 -0.0001 -0.0001
  0.1426    1150   8.696 -0.0001 9.5E-04 -0.0001 -0.0001
  0.1413    1140   8.772 -0.0001 9.6E-04 -0.0001 -0.0001
  0.1401    1130   8.850 -0.0001 9.9E-04 -0.0001 -0.0001
  0.1389    1120   8.929 -0.0001 1.1E-03 -0.0001 -0.0001
  0.1376    1110   9.009 -0.0001 1.1E-03 -0.0001 -0.0001
  0.1364    1100   9.091 -0.0001 9.4E-04 -0.0001 -0.0001
  0.1351    1090   9.174 -0.0001 1.1E-03 -0.0001 -0.0001
  0.1339    1080   9.259 -0.0001 1.3E-03 -0.0001 -0.0001
  0.1333    1075   9.302 -0.0001 1.3E-03 -0.0001 -0.0001
  0.1327    1070   9.346 -0.0001 1.2E-03 -0.0001 -0.0001
  0.1320    1065   9.390 -0.0001 1.2E-03 -0.0001 -0.0001
  0.1314    1060   9.434 -0.0001 1.1E-03 -0.0001 -0.0001
  0.1308    1055   9.479 -0.0001 1.1E-03 -0.0001 -0.0001
  0.1302    1050   9.524 -0.0001 1.1E-03 -0.0001 -0.0001
  0.1296    1045   9.569 -0.0001 9.3E-04 -0.0001 -0.0001
  0.1289    1040   9.615 -0.0001 9.2E-04 -0.0001 -0.0001
  0.1277    1030   9.709 -0.0001 8.2E-04 -0.0001 -0.0001
  0.1265    1020   9.804 -0.0001 8.1E-04 -0.0001 -0.0001
  0.1252    1010   9.901 -0.0001 8.3E-04 -0.0001 -0.0001
  0.1240    1000   10.00 -0.0001 1.0E-03 -0.0001 -0.0001
  0.1234     995   10.05 -0.0001 1.3E-03 -0.0001 -0.0001
  0.1227     990   10.10 -0.0001 1.5E-03 -0.0001 -0.0001
  0.1221     985   10.15 -0.0001 1.3E-03 -0.0001 -0.0001
  0.1215     980   10.20 -0.0001 1.1E-03 -0.0001 -0.0001
  0.1209     975   10.26 -0.0001 8.0E-04 -0.0001 -0.0001
  0.1203     970   10.31 -0.0001 8.4E-04 -0.0001 -0.0001
  0.1196     965   10.36 -0.0001 9.1E-04 -0.0001 -0.0001
  0.1190     960   10.42 -0.0001 8.5E-04 -0.0001 -0.0001
  0.1184     955   10.47 -0.0001 8.3E-04 -0.0001 -0.0001
  0.1178     950   10.53 -0.0001 8.2E-04 -0.0001 -0.0001
  0.1165     940   10.64 -0.0001 8.3E-04 -0.0001 -0.0001
  0.1153     930   10.75 -0.0001 8.7E-04 -0.0001 -0.0001
  0.1141     920   10.87 -0.0001 1.0E-03 -0.0001 -0.0001
  0.1134     915   10.93 -0.0001 1.6E-03 -0.0001 -0.0001
  0.1131     912   10.96 -0.0001 2.3E-03 -0.0001 -0.0001
  0.1128     910   10.99 -0.0001 3.5E-03 -0.0001 -0.0001
  0.1125     907   11.02 -0.0001 3.6E-03 -0.0001 -0.0001
  0.1122     905   11.05 -0.0001 2.7E-03 -0.0001 -0.0001
  0.1116     900   11.11 -0.0001 1.7E-03 -0.0001 -0.0001
  0.1103     890   11.24 -0.0001 9.0E-04 -0.0001 -0.0001
  0.1091     880   11.36 -0.0001 8.1E-04 -0.0001 -0.0001
  0.1079     870   11.49 -0.0001 6.7E-04 -0.0001 -0.0001
  0.1066     860   11.63 -0.0001 7.2E-04 -0.0001 -0.0001
  0.1054     850   11.76 -0.0001 7.6E-04 -0.0001 -0.0001
  0.1041     840   11.90 -0.0001 7.8E-04 -0.0001 -0.0001
  0.1029     830   12.05 -0.0001 8.2E-04 -0.0001 -0.0001
  0.1017     820   12.20 -0.0001 8.7E-04 -0.0001 -0.0001
  0.1004     810   12.35 -0.0001 9.5E-04 -0.0001 -0.0001
 0.09919     800   12.50 -0.0001 1.0E-03 -0.0001 -0.0001
 0.09795     790   12.66 -0.0001 1.1E-03 -0.0001 -0.0001
 0.09671     780   12.82 -0.0001 1.1E-03 -0.0001 -0.0001
 0.09547     770   12.99 -0.0001 1.3E-03 -0.0001 -0.0001
 0.09423     760   13.16 -0.0001 1.6E-03 -0.0001 -0.0001
 0.09299     750   13.33 -0.0001 2.3E-03 -0.0001 -0.0001
 0.09175     740   13.51 -0.0001 6.4E-03 -0.0001 -0.0001
 0.09113     735   13.61 -0.0001 1.9E-02 -0.0001 -0.0001
 0.09051     730   13.70 -0.0001 8.1E-02 -0.0001 -0.0001
 0.08989     725   13.79 -0.0001 2.9E-02 -0.0001 -0.0001
 0.08927     720   13.89 -0.0001 7.0E-02 -0.0001 -0.0001
 0.08865     715   13.99 -0.0001 1.9E-02 -0.0001 -0.0001
 0.08803     710   14.08 -0.0001 1.2E-02 -0.0001 -0.0001
 0.08679     700   14.29 -0.0001 3.5E-03 -0.0001 -0.0001
 0.08555     690   14.49 -0.0001 1.9E-03 -0.0001 -0.0001
 0.08431     680   14.71 -0.0001 1.5E-03 -0.0001 -0.0001
 0.08307     670   14.93     1.5 1.2E-03 -0.0001 -0.0001
      eV    cm-1      um      nb      kb      nc      kc
 0.05567   449.2   22.26 1.51390 0.00050 1.53119 0.00077
 0.05542   447.3   22.36 1.51388 0.00050 1.53122 0.00079
 0.05518   445.3   22.46 1.51384 0.00050 1.53123 0.00073
 0.05494   443.4   22.56 1.51381 0.00050 1.53117 0.00075
 0.05470   441.4   22.65 1.51380 0.00049 1.53104 0.00090
 0.05446   439.4   22.76 1.51380 0.00049 1.53121 0.00075
 0.05421   437.5   22.86 1.51378 0.00051 1.53119 0.00068
 0.05397   435.6   22.96 1.51376 0.00051 1.53115 0.00070
 0.05373   433.6   23.06 1.51375 0.00051 1.53110 0.00071
 0.05349   431.6   23.17 1.51375 0.00053 1.53108 0.00071
 0.05325   429.7   23.27 1.51374 0.00053 1.53104 0.00070
 0.05300   427.7   23.38 1.51373 0.00051 1.53102 0.00069
 0.05276   425.8   23.49 1.51371 0.00050 1.53104 0.00070
 0.05252   423.8   23.59 1.51372 0.00049 1.53104 0.00071
 0.05228   421.9   23.70 1.51371 0.00049 1.53103 0.00070
 0.05203   419.9   23.81 1.51370 0.00050 1.53102 0.00067
 0.05179   418.0   23.93 1.51369 0.00049 1.53100 0.00067
 0.05155   416.0   24.04 1.51368 0.00047 1.53098 0.00069
 0.05131   414.1   24.15 1.51367 0.00047 1.53095 0.00070
 0.05107   412.1   24.27 1.51365 0.00046 1.53094 0.00069
 0.05082   410.2   24.38 1.51364 0.00045 1.53093 0.00067
 0.05058   408.2   24.50 1.51362 0.00045 1.53091 0.00067
 0.05034   406.2   24.62 1.51361 0.00045 1.53089 0.00068
 0.05010   404.3   24.73 1.51360 0.00045 1.53086 0.00068
 0.04986   402.3   24.85 1.51358 0.00045 1.53083 0.00067
 0.04961   400.4   24.98 1.51357 0.00045 1.53083 0.00065
 0.04937   398.4   25.10 1.51355 0.00046 1.53083 0.00065
 0.04913   396.5   25.22 1.51355 0.00046 1.53081 0.00066
 0.04889   394.5   25.35 1.51354 0.00044 1.53080 0.00066
 0.04865   392.6   25.47 1.51354 0.00044 1.53080 0.00067
 0.04840   390.6   25.60 1.51352 0.00044 1.53080 0.00068
 0.04816   388.7   25.73 1.51350 0.00044 1.53079 0.00068
 0.04792   386.7   25.86 1.51349 0.00044 1.53079 0.00069
 0.04768   384.8   25.99 1.51348 0.00044 1.53079 0.00071
 0.04744   382.8   26.12 1.51346 0.00044 1.53078 0.00071
 0.04719   380.9   26.26 1.51344 0.00044 1.53077 0.00069
 0.04695   378.9   26.39 1.51343 0.00044 1.53078 0.00070
 0.04671   376.9   26.53 1.51342 0.00044 1.53078 0.00071
 0.04647   375.0   26.67 1.51341 0.00045 1.53077 0.00071
 0.04623   373.0   26.81 1.51342 0.00045 1.53077 0.00070
 0.04598   371.1   26.95 1.51342 0.00045 1.53074 0.00071
 0.04574   369.1   27.09 1.51341 0.00044 1.53073 0.00071
 0.04550   367.2   27.23 1.51341 0.00043 1.53073 0.00070
 0.04526   365.2   27.38 1.51340 0.00043 1.53072 0.00069
 0.04502   363.3   27.53 1.51339 0.00043 1.53071 0.00069
 0.04477   361.3   27.68 1.51338 0.00042 1.53072 0.00069
 0.04453   359.4   27.83 1.51337 0.00042 1.53072 0.00068
 0.04429   357.4   27.98 1.51336 0.00042 1.53071 0.00067
 0.04405   355.5   28.13 1.51334 0.00042 1.53070 0.00067
 0.04381   353.5   28.29 1.51333 0.00042 1.53069 0.00067
 0.04356   351.6   28.44 1.51332 0.00042 1.53068 0.00067
 0.04332   349.6   28.60 1.51332 0.00042 1.53067 0.00066
 0.04308   347.7   28.76 1.51331 0.00042 1.53067 0.00066
 0.04284   345.7   28.93 1.51330 0.00042 1.53065 0.00066
 0.04260   343.7   29.09 1.51329 0.00042 1.53065 0.00066
 0.04235   341.8   29.26 1.51328 0.00042 1.53064 0.00066
 0.04211   339.8   29.43 1.51328 0.00042 1.53064 0.00066
 0.04187   337.9   29.60 1.51327 0.00043 1.53063 0.00066
 0.04163   335.9   29.77 1.51327 0.00043 1.53062 0.00066
 0.04139   334.0   29.94 1.51326 0.00043 1.53061 0.00066
 0.04114   332.0   30.12 1.51325 0.00043 1.53061 0.00066
 0.04090   330.1   30.30 1.51324 0.00043 1.53060 0.00065
 0.04066   328.1   30.48 1.51323 0.00044 1.53060 0.00066
 0.04042   326.2   30.66 1.51322 0.00044 1.53060 0.00066
 0.04018   324.2   30.84 1.51322 0.00044 1.53060 0.00066
 0.03993   322.3   31.03 1.51321 0.00044 1.53059 0.00066
 0.03969   320.3   31.22 1.51321 0.00044 1.53058 0.00066
 0.03945   318.4   31.41 1.51320 0.00044 1.53057 0.00066
 0.03921   316.4   31.60 1.51320 0.00045 1.53057 0.00067
 0.03897   314.4   31.80 1.51319 0.00045 1.53056 0.00067
 0.03872   312.5   32.00 1.51319 0.00046 1.53055 0.00066
 0.03848   310.6   32.20 1.51319 0.00046 1.53054 0.00066
 0.03824   308.6   32.41 1.51318 0.00046 1.53054 0.00067
 0.03800   306.6   32.61 1.51318 0.00046 1.53053 0.00068
 0.03776   304.7   32.82 1.51317 0.00046 1.53054 0.00068
 0.03751   302.7   33.03 1.51316 0.00046 1.53054 0.00068
 0.03727   300.8   33.25 1.51315 0.00047 1.53053 0.00068
 0.03703   298.8   33.46 1.51315 0.00047 1.53052 0.00069
 0.03679   296.9   33.68 1.51315 0.00048 1.53051 0.00070
 0.03655   294.9   33.91 1.51316 0.00048 1.53051 0.00070
 0.03630   293.0   34.13 1.51316 0.00048 1.53051 0.00070
 0.03606   291.0   34.36 1.51315 0.00048 1.53051 0.00071
 0.03582   289.1   34.59 1.51315 0.00049 1.53050 0.00072
 0.03558   287.1   34.83 1.51315 0.00049 1.53050 0.00072
 0.03534   285.2   35.07 1.51314 0.00049 1.53050 0.00072
 0.03509   283.2   35.31 1.51314 0.00050 1.53048 0.00073
 0.03485   281.2   35.56 1.51314 0.00050 1.53048 0.00073
 0.03461   279.3   35.80 1.51314 0.00050 1.53048 0.00074
 0.03437   277.3   36.06 1.51313 0.00050 1.53047 0.00076
 0.03413   275.4   36.31 1.51314 0.00050 1.53047 0.00077
 0.03388   273.4   36.57 1.51314 0.00050 1.53046 0.00077
 0.03364   271.5   36.83 1.51314 0.00050 1.53047 0.00078
 0.03340   269.5   37.10 1.51314 0.00050 1.53046 0.00078
 0.03316   267.6   37.37 1.51314 0.00050 1.53046 0.00079
 0.03292   265.6   37.65 1.51314 0.00050 1.53046 0.00079
 0.03267   263.7   37.93 1.51313 0.00050 1.53046 0.00080
 0.03243   261.7   38.21 1.51313 0.00050 1.53045 0.00080
 0.03219   259.8   38.50 1.51313 0.00050 1.53044 0.00081
 0.03195   257.8   38.79 1.51313 0.00050 1.53044 0.00082
 0.03171   255.9   39.08 1.51313 0.00051 1.53045 0.00083
 0.03146   253.9   39.38 1.51312 0.00051 1.53044 0.00085
 0.03122   251.9   39.69 1.51311 0.00051 1.53043 0.00086
 0.03098   250.0   40.00 1.51311 0.00051 1.53043 0.00087
 0.03074   248.0   40.31 1.51310 0.00051 1.53044 0.00088
 0.03049   246.1   40.63 1.51310 0.00052 1.53044 0.00088
 0.03025   244.1   40.96 1.51310 0.00052 1.53044 0.00089
 0.03001   242.2   41.29 1.51310 0.00052 1.53043 0.00091
 0.02977   240.2   41.63 1.51310 0.00052 1.53042 0.00092
 0.02953   238.3   41.97 1.51310 0.00053 1.53041 0.00094
 0.02928   236.3   42.31 1.51310 0.00053 1.53042 0.00095
 0.02904   234.4   42.67 1.51310 0.00054 1.53043 0.00096
 0.02880   232.4   43.03 1.51310 0.00054 1.53043 0.00096
 0.02856   230.5   43.39 1.51310 0.00054 1.53043 0.00097
 0.02832   228.5   43.76 1.51310 0.00054 1.53043 0.00098
 0.02807   226.6   44.14 1.51309 0.00055 1.53042 0.00099
 0.02783   224.6   44.52 1.51308 0.00055 1.53042 0.00099
 0.02759   222.7   44.91 1.51309 0.00056 1.53041 0.00101
 0.02735   220.7   45.31 1.51309 0.00056 1.53041 0.00102
 0.02711   218.7   45.71 1.51309 0.00057 1.53042 0.00104
 0.02686   216.8   46.13 1.51309 0.00058 1.53044 0.00107
 0.02662   214.8   46.55 1.51310 0.00059 1.53044 0.00107
 0.02638   212.9   46.97 1.51310 0.00059 1.53043 0.00106
 0.02614   210.9   47.41 1.51310 0.00059 1.53044 0.00106
 0.02590   209.0   47.85 1.51310 0.00060 1.53045 0.00106
 0.02565   207.0   48.30 1.51311 0.00060 1.53044 0.00108
 0.02541   205.1   48.76 1.51311 0.00060 1.53045 0.00111
 0.02517   203.1   49.23 1.51310 0.00060 1.53047 0.00112
 0.02493   201.2   49.71 1.51309 0.00060 1.53046 0.00114
 0.02469   199.2   50.20 1.51310 0.00061 1.53045 0.00115
 0.02444   197.3   50.69 1.51311 0.00061 1.53044 0.00115
 0.02420   195.3   51.20 1.51311 0.00062 1.53045 0.00117
 0.02396   193.4   51.72 1.51312 0.00062 1.53046 0.00119
 0.02372   191.4   52.24 1.51313 0.00062 1.53048 0.00118
 0.02348   189.4   52.78 1.51313 0.00062 1.53050 0.00116
 0.02323   187.5   53.33 1.51313 0.00062 1.53051 0.00118
 0.02299   185.5   53.89 1.51314 0.00062 1.53051 0.00120
 0.02275   183.6   54.47 1.51315 0.00063 1.53052 0.00120
 0.02251   181.6   55.05 1.51316 0.00063 1.53052 0.00119
 0.02227   179.7   55.65 1.51316 0.00063 1.53053 0.00119
 0.02202   177.7   56.26 1.51316 0.00063 1.53055 0.00120
 0.02178   175.8   56.89 1.51317 0.00063 1.53056 0.00122
 0.02154   173.8   57.53 1.51318 0.00062 1.53056 0.00124
 0.02130   171.9   58.18 1.51319 0.00062 1.53057 0.00122
 0.02106   169.9   58.85 1.51318 0.00062 1.53056 0.00122
 0.02081   168.0   59.53 1.51318 0.00062 1.53056 0.00124
 0.02057   166.0   60.24 1.51319 0.00062 1.53056 0.00125
 0.02033   164.1   60.95 1.51320 0.00062 1.53057 0.00126
 0.02009   162.1   61.69 1.51321 0.00062 1.53057 0.00126
 0.01985   160.2   62.44 1.51321 0.00061 1.53056 0.00125
 0.01960   158.2   63.21 1.51321 0.00061 1.53058 0.00125
 0.01936   156.2   64.00 1.51321 0.00060 1.53060 0.00125
 0.01912   154.3   64.81 1.51322 0.00060 1.53060 0.00126
 0.01888   152.3   65.64 1.51322 0.00060 1.53060 0.00127
 0.01864   150.4   66.49 1.51320 0.00060 1.53059 0.00128
 0.01839   148.4   67.37 1.51319 0.00060 1.53058 0.00127
 0.01815   146.5   68.27 1.51320 0.00060 1.53060 0.00129
 0.01791   144.5   69.19 1.51321 0.00059 1.53063 0.00131
 0.01767   142.6   70.14 1.51322 0.00059 1.53064 0.00131
 0.01743   140.6   71.11 1.51322 0.00059 1.53064 0.00130
 0.01718   138.7   72.11 1.51321 0.00059 1.53064 0.00130
 0.01694   136.7   73.14 1.51322 0.00060 1.53065 0.00131
 0.01670   134.8   74.20 1.51323 0.00060 1.53067 0.00132
 0.01646   132.8   75.29 1.51323 0.00061 1.53067 0.00132
 0.01622   130.9   76.42 1.51323 0.00061 1.53069 0.00134
 0.01597   128.9   77.58 1.51324 0.00061 1.53072 0.00134
 0.01573   126.9   78.77 1.51324 0.00061 1.53074 0.00133
 0.01549   125.0   80.00 1.51324 0.00061 1.53076 0.00132
 0.01525   123.0   81.27 1.51325 0.00061 1.53078 0.00130
 0.01501   121.1   82.58 1.51325 0.00060 1.53079 0.00128
 0.01476   119.1   83.93 1.51325 0.00060 1.53079 0.00127
 0.01452   117.2   85.33 1.51326 0.00061 1.53081 0.00127
 0.01428   115.2   86.78 1.51327 0.00061 1.53083 0.00126
 0.01404   113.3   88.28 1.51328 0.00061 1.53084 0.00128
 0.01380   111.3   89.82 1.51328 0.00061 1.53086 0.00127
 0.01355   109.4   91.43 1.51327 0.00061 1.53088 0.00125
 0.01331   107.4   93.09 1.51327 0.00061 1.53088 0.00124
 0.01307   105.5   94.81 1.51327 0.00060 1.53087 0.00123
 0.01283   103.5   96.60 1.51327 0.00060 1.53086 0.00123
 0.01259   101.6   98.46 1.51327 0.00061 1.53085 0.00126
 0.01234    99.6   100.4 1.51325 0.00060 1.53082 0.00129
 0.01210    97.7   102.4 1.51323 0.00061 1.53083 0.00128
 0.01186    95.7   104.5 1.51325 0.00061 1.53087 0.00127
 0.01162    93.7   106.7 1.51326 0.00060 1.53091 0.00128
 0.01138    91.8   108.9 1.51327 0.00059 1.53094 0.00128
 0.01113    89.8   111.3 1.51327 0.00059 1.53096 0.00125
 0.01089    87.9   113.8 1.51326 0.00060 1.53094 0.00123
 0.01065    85.9   116.4 1.51325 0.00061 1.53091 0.00123
 0.01041    84.0   119.1 1.51324 0.00062 1.53088 0.00123
 0.01016    82.0   121.9 1.51322 0.00062 1.53083 0.00124
 0.00992    80.1   124.9 1.51319 0.00062 1.53075 0.00130
 0.00968    78.1   128.0 1.51315 0.00066 1.53063 0.00142
 0.00944    76.2   131.3 1.51314 0.00072 1.53053 0.00159
 0.00920    74.2   134.7 1.51315 0.00082 1.53073 0.00201
 0.00895    72.3   138.4 1.51327 0.00098 1.53163 0.00232
 0.00871    70.3   142.2 1.51358 0.00103 1.53207 0.00188
 0.00847    68.4   146.3 1.51381 0.00088 1.53200 0.00150
 0.00823    66.4   150.6 1.51387 0.00074 1.53188 0.00129
 0.00799    64.4   155.1 1.51385 0.00065 1.53182 0.00115
 0.00774    62.5   160.0 1.51381 0.00060 1.53186 0.00109
 0.00750    60.5   165.2 1.51381 0.00057 1.53188 0.00109
 0.00620    50.0   200.0 -0.0001 0.00062 -0.0001 -0.0001
 0.00558    45.0   222.2 -0.0001 0.00056 -0.0001 -0.0001
 0.00496    40.0   250.0 -0.0001 0.00051 -0.0001 -0.0001
 0.00434    35.0   285.7 -0.0001 0.00045 -0.0001 -0.0001
 0.00372    30.0   333.3 -0.0001 0.00040 -0.0001 -0.0001
 0.00310    25.0   400.0 -0.0001 0.00034 -0.0001 -0.0001
 0.00248    20.0   500.0 -0.0001 0.00029 -0.0001 -0.0001
 0.00186    15.0   666.7 -0.0001 0.00023 -0.0001 -0.0001
 0.00124    10.0    1000 -0.0001 0.00017 -0.0001 -0.0001
 0.000620     5.0    2000 -0.0001 0.00012 -0.0001 -0.0001
 0.00399    32.2   310.3 1.51362 0.00047 1.52454 0.00048
 0.00393    31.7   315.1 1.51363 0.00046 1.52458 0.00046
 0.00387    31.2   320.0 1.51363 0.00045 1.52458 0.00045
 0.00381    30.8   325.1 1.51363 0.00043 1.52460 0.00045
 0.00375    30.3   330.4 1.51362 0.00044 1.52460 0.00043
 0.00369    29.8   335.7 1.51362 0.00044 1.52462 0.00044
 0.00363    29.3   341.3 1.51362 0.00043 1.52462 0.00042
 0.00357    28.8   347.1 1.51363 0.00042 1.52465 0.00041
 0.00351    28.3   353.1 1.51363 0.00041 1.52466 0.00040
 0.00345    27.8   359.3 1.51361 0.00041 1.52465 0.00040
 0.00339    27.3   365.8 1.51362 0.00041 1.52465 0.00041
 0.00333    26.9   372.3 1.51362 0.00041 1.52466 0.00039
 0.00327    26.4   379.2 1.51362 0.00040 1.52467 0.00040
 0.00321    25.9   386.4 1.51362 0.00039 1.52467 0.00038
 0.00315    25.4   393.9 1.51363 0.00039 1.52471 0.00038
 0.00309    24.9   401.6 1.51364 0.00038 1.52458 0.00037
 0.00302    24.4   409.7 1.51364 0.00037 1.52464 0.00036
 0.00297    23.9   417.9 1.51364 0.00037 1.52467 0.00035
 0.00290    23.4   426.6 1.51365 0.00037 1.52467 0.00034
 0.00284    22.9   435.7 1.51365 0.00036 1.52468 0.00034
 0.00278    22.5   445.2 1.51368 0.00036 1.52467 0.00033
 0.00272    22.0   455.2 1.51371 0.00034 1.52467 0.00033
 0.00266    21.5   465.6 1.51371 0.00034 1.52467 0.00032
 0.00260    21.0   476.2 1.51370 0.00034 1.52467 0.00031
 0.00254    20.5   487.6 1.51369 0.00035 1.52468 0.00029
 0.00248    20.0   499.5 1.51371 0.00034 1.52469 0.00031
 0.00242    19.5   512.0 1.51372 0.00032 1.52468 0.00030
 0.00236    19.0   525.2 1.51373 0.00031 1.52473 0.00028
 0.00230    18.5   539.1 1.51373 0.00029 1.52454 0.00030
 0.00224    18.1   553.4 1.51373 0.00030 1.52461 0.00030
 0.00218    17.6   568.8 1.51377 0.00031 1.52463 0.00030
 0.00212    17.1   585.1 1.51380 0.00029 1.52465 0.00031
 0.00206    16.6   602.4 1.51380 0.00028 1.52464 0.00030
 0.00200    16.1   620.7 1.51382 0.00029 1.52462 0.00030
 0.00194    15.6   640.2 1.51383 0.00029 1.52462 0.00031
 0.00188    15.1   660.5 1.51386 0.00029 1.52464 0.00031
 0.00182    14.6   682.6 1.51391 0.00029 1.52458 0.00032
 0.00175    14.2   706.2 1.51395 0.00022 1.52459 0.00030
 0.00169    13.7   731.5 1.51395 0.00029 1.52457 0.00030
 0.00163    13.2   758.7 1.51391 0.00028 1.52462 0.00029
 0.00157    12.7   787.4 1.51390 0.00027 1.52464 0.00029
 0.00151    12.2   819.0 1.51397 0.00027 1.52471 0.00029
 0.00145    11.7   853.2 1.51404 0.00023 1.52476 0.00029
 0.00139    11.2   890.5 1.51406 0.00020 1.52476 0.00028
 0.00133    10.7   931.1 1.51406 0.00021 1.52470 0.00028
 0.00127    10.2   975.6 1.51407 0.00022 1.52468 0.00030
 0.00121     9.8    1024 1.51407 0.00022 1.52472 0.00028
 0.00115     9.3    1078 1.51404 0.00022 1.52472 0.00025
 0.00109     8.8    1138 1.51399 0.00023 1.52473 0.00026
 0.00103     8.3    1205 1.51395 0.00023 1.52473 0.00028
 0.000967     7.8    1280 1.51402 0.00023 1.52475 0.00025
 0.000905     7.3    1366 1.51409 0.00024 1.52479 0.00022
 0.000843     6.8    1462 1.51407 0.00023 1.52476 0.00022
 0.000781     6.3    1575 1.51408 0.00024 1.52468 0.00025
 0.000731     5.9    1706 1.51410 0.00022 1.52463 0.00024
 0.000669     5.4    1862 1.51405 0.00024 1.52461 0.00024
