;UO 
;UO CaF2.ASC: Values of n and k for cubic calcium fluoride from
;UO various references in HOCII (pg. 830).  References are 41,
;UO 42, 50, 51, 52 53, 88, 89, 90, 91.
;UO 
;UO Copyright (c) 1995 by the Optical Society of America.  Data
;UO from HANDBOOK OF OPTICAL CONSTANTS IN SOLIDS II edited by Edward D.
;UO Palik. Copyright (c) 1991 by Academic Press, Inc. Reproduced by
;UO permission of the publisher.
;UO ------------------------------------------------------------ 
;UO       eV   cm-1         um         n             k         
;UO ------------------------------------------------------------	
;N  5
;L  Energy[eV]  Wavelength[cm-1]  Wavelength[um]  n  k  
 41.3285 333334.  0.0300   0.814   0.148
 41.3285 333334.  0.0300    0.82    0.18
 30.9964 250001.  0.0400   0.917   0.284
 24.7971 200000.  0.0500   1.108   0.433
 20.6643 166667.  0.0600   1.074   0.335
 20.6643 166667.  0.0600    1.08    0.34
 17.7122 142857.  0.0700   0.908   0.353
 15.4982 125000.  0.0800   1.169   0.753
 13.7762 111112.  0.0900   1.630   0.675
 13.7762 111112.  0.0900    1.85    0.65
 13.3749 107875.  0.0927   1.640   0.768
 12.6775 102250.  0.0978   1.780   0.650
 12.2153  98522.  0.1015   1.775   0.540
 12.0844  97467.  0.1026   1.742   0.517
 11.9793  96619.  0.1035   1.732   0.473
 11.8420  95512.  0.1047   1.725   0.395
 11.6200  93721.  0.1067   1.615   0.344
 11.3748  91743.  0.1090   1.533   0.600
 11.2714  90909.  0.1100   1.570   0.785
 11.1098  89606.  0.1116   1.775   0.830
 10.8190  87261.  0.1146   2.000   0.631
 10.6700  86059.  0.1162   2.027   0.490
 10.5520  85107.  0.1175   1.996   0.390
 10.4190  84034.  0.1190   1.983   0.290
 10.3321  83334.  0.1200    2.05     0.1
  9.8872  79745.  0.1254   1.888 -0.0001
  9.7167  78370.  0.1276   1.855 -0.0001
  9.3013  75020.  0.1333   1.803 -0.0001
  8.6522  69784.  0.1433   1.711 -0.0001
  7.7250  62306.  0.1605   1.607 -0.0001
  7.7250  62306.  0.1605  1.5547 -0.0001
  7.6914  62035.  0.1612  1.5509 -0.0001
  7.5371  60790.  0.1645  1.5438 -0.0001
  7.4199  59845.  0.1671  1.5385 -0.0001
  7.1876  57972.  0.1725  1.5289 -0.0001
  7.0287  56690.  0.1764  1.5227 -0.0001
  6.8161  54975.  0.1819  1.5152 -0.0001
  6.7019  54054.  0.1850 1.51024 -0.0001
  6.6659  53764.  0.1860 1.50930 -0.0001
  6.4241  51813.  0.1930 1.50150 -0.0001
  6.2937  50762.  0.1970 1.49755 -0.0001
  6.2619  50505.  0.1980 1.49643 -0.0001
  6.1993  50000.  0.2000 1.49547 -0.0001
  6.0777  49020.  0.2040 1.49190 -0.0001
  5.9609  48078.  0.2080 1.48907 -0.0001
  5.8761  47394.  0.2110 1.48705 -0.0001
  5.7937  46729.  0.2140 1.48480 -0.0001
  5.6614  45662.  0.2190 1.48167 -0.0001
  5.6357  45455.    0.22 1.48110 -0.0001
  5.1661  41666.    0.24 1.47120 -0.0001
  4.7687  38462.    0.26 1.46391 -0.0001
  4.4281  35714.    0.28 1.45836 -0.0001
  4.1329  33333.    0.30 1.45402 -0.0001
  3.8746  31250.    0.32 1.45056 -0.0001
  3.6466  29412.    0.34 1.44775 -0.0001
  3.4440  27778.    0.36 1.44548 -0.0001
  3.2628  26316.    0.38 1.44349 -0.0001
  3.0996  25000.    0.40 1.44185 -0.0001
  2.9520  23810.    0.42 1.44045 -0.0001
  2.8179  22727.    0.44 1.43924 -0.0001
  2.6953  21739.    0.46 1.43820 -0.0001
  2.5830  20833.    0.48 1.43728 -0.0001
  2.4797  20000.    0.50 1.43647 -0.0001
  2.3843  19231.    0.52 1.43575 -0.0001
  2.2960  18519.    0.54 1.43512 -0.0001
  2.2140  17857.    0.56 1.43454 -0.0001
  2.1377  17241.    0.58 1.43403 -0.0001
  2.0664  16667.    0.60 1.43356 -0.0001
  1.9998  16129.    0.62 1.43313 -0.0001
  1.9373  15625.    0.64 1.43275 -0.0001
  1.8786  15152.    0.66 1.43239 -0.0001
  1.8233  14706.    0.68 1.43206 -0.0001
  1.7712  14286.    0.70 1.43176 -0.0001
  1.7220  13889.    0.72 1.43148 -0.0001
  1.6755  13514.    0.74 1.43121 -0.0001
  1.6314  13158.    0.76 1.43097 -0.0001
  1.5896  12821.    0.78 1.43074 -0.0001
  1.5498  12500.    0.80 1.43052 -0.0001
  1.5120  12195.    0.82 1.43032 -0.0001
  1.4760  11905.    0.84 1.43013 -0.0001
  1.4417  11628.    0.86 1.42995 -0.0001
  1.4089  11364.    0.88 1.42977 -0.0001
  1.3776  11111.    0.90 1.42961 -0.0001
  1.3477  10870.    0.92 1.42945 -0.0001
  1.3190  10638.    0.94 1.42930 -0.0001
  1.2915  10417.    0.96 1.42915 -0.0001
  1.2652  10204.    0.98 1.42901 -0.0001
  1.2399  10000.    1.00 1.42888 -0.0001
  1.0332   8333.    1.20 1.42771 -0.0001
  0.8856   7143.    1.40 1.42672 -0.0001
  0.7749   6250.    1.60 1.42579 -0.0001
  0.6888   5555.    1.80 1.42484 -0.0001
  0.6199   5000.    2.00 1.42385 -0.0001
  0.5636   4545.    2.20 1.42280 -0.0001
  0.5166   4167.    2.40 1.42168 -0.0001
  0.4769   3846.    2.60 1.42049 -0.0001
  0.4428   3571.    2.80 1.41921 -0.0001
  0.4133   3333.    3.00 1.41785 -0.0001
  0.3875   3125.    3.20 1.41639 -0.0001
  0.3647   2941.    3.40 1.41484 -0.0001
  0.3444   2778.    3.60 1.41320 -0.0001
  0.3263   2632.    3.80 1.41147 -0.0001
  0.3100   2500.    4.00 1.40963 -0.0001
  0.2952   2381.    4.20 1.40770 -0.0001
  0.2818   2273.    4.40 1.40567 -0.0001
  0.2695   2174.    4.60 1.40354 -0.0001
  0.2583   2083.    4.80 1.40130 -0.0001
  0.2480   2000.    5.00 1.39895 -0.0001
  0.2384   1923.    5.20 1.39650 -0.0001
  0.2296   1852.    5.40 1.39394 -0.0001
  0.2234   1800.    5.55 -0.0001 3.5E-08
  0.2214   1786.    5.60 1.39127 -0.0001
  0.2138   1724.    5.80 1.38849 -0.0001
  0.2066   1667.    6.00 1.38559 -0.0001
  0.2000   1613.    6.20 1.38258 -0.0001
  0.1984   1600.    6.25 -0.0001 3.5E-07
  0.1937   1563.    6.40 1.37945 -0.0001
  0.1879   1515.    6.60 1.37620 -0.0001
  0.1823   1471.    6.80 1.37282 -0.0001
  0.1771   1429.    7.00 1.36932 -0.0001
  0.1737   1400.    7.14 -0.0001 3.4E-06
  0.1722   1389.    7.20 1.36569 -0.0001
  0.1676   1351.    7.40 1.36193 -0.0001
  0.1631   1316.    7.60 1.35804 -0.0001
  0.1590   1282.    7.80 1.35401 -0.0001
  0.1550   1250.    8.00 1.34983 -0.0001
  0.1512   1220.    8.20 1.34552 -0.0001
  0.1488   1200.    8.33 -0.0001 3.3E-05
  0.1476   1190.    8.40 1.34106 -0.0001
  0.1442   1163.    8.60 1.33645 -0.0001
  0.1409   1136.    8.80 1.33169 -0.0001
  0.1378   1111.    9.00 1.32677 -0.0001
  0.1348   1087.    9.20 1.32168 -0.0001
  0.1319   1064.    9.40 1.31643 -0.0001
  0.1292   1042.    9.60 1.31101 -0.0001
  0.1265   1020.    9.80 1.30541 -0.0001
  0.1240   1000.   10.00   1.306  0.0029
  0.1178    950.   10.53   1.289  0.0035
  0.1116    900.   11.11   1.269   0.004
  0.1054    850.   11.76   1.247   0.005
  0.0992    800.   12.50   1.218   0.007
  0.0930    750.   13.33   1.181   0.009
  0.0868    700.   14.29   1.133   0.012
  0.0806    650.   15.38   1.067   0.017
  0.0744    600.   16.67   0.971   0.027
  0.0713    575.   17.39   0.906   0.035
  0.0682    560.   18.18   0.821   0.047
  0.0651    525.   19.05   0.707   0.068
  0.0620    500.   20.00   0.539   0.115
  0.0589    475.   21.05   0.291   0.280
  0.0558    450.   22.22   0.182   0.609
  0.0527    425.   23.53   0.174   0.902
  0.0496    400.   25.00   0.196   1.187
  0.0465    375.   26.67   0.241   1.488
  0.0434    350.   28.57   0.298   1.818
  0.0403    325.   30.77   0.317   2.235
  0.0372    300.   33.33   0.276   3.011
  0.0360    290.   34.48   0.280   3.565
  0.0347    280.   35.71   0.346   4.430
  0.0335    270.   37.04   0.639   6.071
  0.0322    260.   38.46   3.909  11.146
  0.0320    258.   38.76   8.093  12.137
  0.0319    257.   38.91  10.876  10.750
  0.0317    256.   39.06  12.342   8.010
  0.0315    254.   39.37  11.463   3.831
  0.0312    252.   39.68   9.864   2.115
  0.0310    250.   40.00   8.673   1.352
  0.0298    240.   41.67   5.927   0.389
  0.0285    230.   43.48   4.867   0.206
  0.0273     220   45.45   4.283   0.136
  0.0260     210   47.62   3.907   0.100
  0.0248    200.   50.00   3.641   0.079
  0.0223    180.   55.55   3.289   0.053
  0.0198    160.   62.50   3.066   0.039
  0.0174    140.   71.43   2.914   0.029
  0.0149    120.   83.33   2.805   0.022
  0.0124    100.   100.0   2.726   0.017
  0.0124    100.   100.0   2.729 -0.0001
 0.00620     50.   200.0   2.610   0.034
 0.00422   34.01   294.0    2.57 -0.0001
 0.00395   31.85   314.0    2.55 -0.0001
 0.00387   31.25   320.0 -0.0001   0.017
 0.00365   29.41   340.0    2.55 -0.0001
 0.00343   27.62   362.0    2.49 -0.0001
 0.00314   25.32   395.0    2.47 -0.0001
 0.00310   25.00   400.0 -0.0001   0.018
 0.00274   22.08   453.0    2.55 -0.0001
 0.00214   17.24   580.0    2.54 -0.0001
