;UO 
;UO CdTe.ASC: Values of n and k for cubic cadmium telluride from
;UO various references in HOCI (pg. 415).  References are 1, 3, 5, 7,
;UO 8, 9, 10, 11, 14, 15, 17, 18, 21, 22.
;UO 
;UO From HANDBOOK OF OPTICAL CONSTANTS IN SOLIDS edited by Edward D.
;UO Palik. Copyright (c) 1985 by Academic Press, Inc. Reproduced by
;UO permission of the publisher.
;UO ----------------------------------------------------------------
;UO   eV        cm-1       um      n       n         n       k      k
;UO ----------------------------------------------------------------
;N  8
;L  Energy[eV]  Wavelength[cm-1]  Wavelength[um]  n  n  n  k  k  
   1.984  16000.   0.625   2.873 -0.0001 -0.0001 -0.0001 -0.0001
   1.907  15380.    0.65   2.860 -0.0001 -0.0001   0.238 -0.0001
   1.837  14810.   0.675   2.860 -0.0001 -0.0001 -0.0001 -0.0001
   1.771  14290.    0.70   2.861 -0.0001 -0.0001   0.210 -0.0001
    1.75  14110.  0.7085    2.95 -0.0001 -0.0001   0.338 -0.0001
   1.710  13790.   0.725   2.868 -0.0001 -0.0001 -0.0001 -0.0001
   1.653  13330.    0.75   2.870 -0.0001 -0.0001   0.185 -0.0001
   1.631  13160.    0.76 -0.0001 -0.0001 -0.0001   0.179 -0.0001
   1.610  12990.    0.77 -0.0001 -0.0001 -0.0001   0.174 -0.0001
   1.600  12900.   0.775   2.872 -0.0001 -0.0001 -0.0001 -0.0001
   1.590  12820.    0.78 -0.0001 -0.0001 -0.0001   0.165 -0.0001
   1.569  12740.    0.79 -0.0001 -0.0001 -0.0001   0.155 -0.0001
   1.550  12500.    0.80   2.876 -0.0001 -0.0001   0.125 -0.0001
   1.531  12350.    0.81 -0.0001 -0.0001 -0.0001  8.0E-2 -0.0001
   1.512  12200.    0.82   2.880 -0.0001 -0.0001  4.0E-2 -0.0001
    1.50  12100.  0.8266    2.98 -0.0001 -0.0001   0.319 -0.0001
   1.494  12050.    0.83 -0.0001 -0.0001 -0.0001  2.0E-2 -0.0001
   1.475  11900.   0.840   2.905 -0.0001 -0.0001 1.34E-3 -0.0001
    1.47  11860.  0.8434 -0.0001 -0.0001 -0.0001 6.71E-4 -0.0001
   1.465  11820.  0.8463 -0.0001 -0.0001 -0.0001 3.37E-4 -0.0001
    1.46  11780.  0.8492 -0.0001 -0.0001 -0.0001 1.89E-4 -0.0001
   1.459  11760.   0.850   2.948 -0.0001 -0.0001 -0.0001 -0.0001
   1.455  11740.  0.8521 -0.0001 -0.0001 -0.0001 1.08E-4 -0.0001
   1.445  11650.  0.8580 -0.0001 -0.0001 -0.0001 2.73E-5 -0.0001
   1.442  11630.   0.860   2.952 -0.0001 -0.0001 -0.0001 -0.0001
    1.43  11530.  0.8670  2.9402 -0.0001 -0.0001 -0.0001 -0.0001
    1.42  11450.  0.8731  2.9331 -0.0001 -0.0001 -0.0001 -0.0001
    1.41  11370.  0.8793  2.9266 -0.0001 -0.0001 -0.0001 -0.0001
   1.409  11360.   0.880   2.920 -0.0001 -0.0001 -0.0001 -0.0001
    1.40  11290.  0.8856  2.9205 -0.0001 -0.0001 -0.0001 -0.0001
    1.39  11210.  0.8920  2.9147 -0.0001 -0.0001 -0.0001 -0.0001
    1.38  11130.  0.8984  2.9092 -0.0001 -0.0001 -0.0001 -0.0001
   1.378  11110.   0.900   2.899 -0.0001 -0.0001 -0.0001 -0.0001
    1.36  10970.  0.9116  2.8989 -0.0001 -0.0001 -0.0001 -0.0001
    1.35  10890.  0.9184  2.8940 -0.0001 -0.0001 -0.0001 -0.0001
    1.34  10810.  0.9252  2.8894 -0.0001 -0.0001 -0.0001 -0.0001
   1.340  10810.   0.925   2.878 -0.0001 -0.0001 -0.0001 -0.0001
    1.33  10730.  0.9322  2.8848 -0.0001 -0.0001 -0.0001 -0.0001
    1.32  10650.  0.9393  2.8804 -0.0001 -0.0001 -0.0001 -0.0001
    1.31  10570.  0.9464  2.8761 -0.0001 -0.0001 -0.0001 -0.0001
   1.305  10530.   0.950   2.860 -0.0001 -0.0001 -0.0001 -0.0001
    1.30  10490.  0.9537  2.8720 -0.0001 -0.0001 -0.0001 -0.0001
    1.29  10400.  0.9611  2.8679 -0.0001 -0.0001 -0.0001 -0.0001
    1.28  10320.  0.9686  2.8640 -0.0001 -0.0001 -0.0001 -0.0001
   1.272  10260.   0.975   2.850 -0.0001 -0.0001 -0.0001 -0.0001
    1.27  10240.  0.9762  2.8601 -0.0001 -0.0001 -0.0001 -0.0001
    1.26  10160.  0.9840  2.8563 -0.0001 -0.0001 -0.0001 -0.0001
    1.25  10080.  0.9919  2.8527 -0.0001 -0.0001 -0.0001 -0.0001
    1.24  10000.  0.9999  2.8490 -0.0001 -0.0001 -0.0001 -0.0001
   1.240  10000.     1.0   2.840 -0.0001 -0.0001 -0.0001 -0.0001
    1.23   9921.   1.008  2.8455 -0.0001 -0.0001 -0.0001 -0.0001
    1.22   9840.   1.016  2.8420 -0.0001 -0.0001 -0.0001 -0.0001
    1.21   9759.   1.025  2.8386 -0.0001 -0.0001 -0.0001 -0.0001
    1.20   9679.   1.033  2.8353 -0.0001 -0.0001 -0.0001 -0.0001
    1.19   9598.   1.042  2.8320 -0.0001 -0.0001 -0.0001 -0.0001
    1.18   9518.   1.051  2.8288 -0.0001 -0.0001 -0.0001 -0.0001
    1.17   9437.   1.060  2.8257 -0.0001 -0.0001 -0.0001 -0.0001
    1.16   9356.   1.069  2.8226 -0.0001 -0.0001 -0.0001 -0.0001
    1.15   9275.   1.078  2.8195 -0.0001 -0.0001 -0.0001 -0.0001
    1.14   9195.   1.088  2.8165 -0.0001 -0.0001 -0.0001 -0.0001
    1.13   9114.   1.097  2.8136 -0.0001 -0.0001 -0.0001 -0.0001
    1.12   9034.   1.107  2.8107 -0.0001 -0.0001 -0.0001 -0.0001
    1.11   8953.   1.117  2.8078 -0.0001 -0.0001 -0.0001 -0.0001
    1.10   8872.   1.127  2.8050 -0.0001 -0.0001 -0.0001 -0.0001
    1.09   8792.   1.137  2.8023 -0.0001 -0.0001 -0.0001 -0.0001
    1.08   8711.   1.148  2.7996 -0.0001 -0.0001 -0.0001 -0.0001
    1.07   8630.   1.159  2.7969 -0.0001 -0.0001 -0.0001 -0.0001
    1.06   8550.   1.170  2.7943 -0.0001 -0.0001 -0.0001 -0.0001
    1.05   8469.   1.181  2.7917 -0.0001 -0.0001 -0.0001 -0.0001
    1.04   8388.   1.192  2.7891 -0.0001 -0.0001 -0.0001 -0.0001
    1.03   8308.   1.204  2.7866 -0.0001 -0.0001 -0.0001 -0.0001
    1.02   8227.   1.216  2.7842 -0.0001 -0.0001 -0.0001 -0.0001
    1.01   8146.   1.228  2.7817 -0.0001 -0.0001 -0.0001 -0.0001
    1.00   8065.   1.240  2.7793 -0.0001 -0.0001 -0.0001 -0.0001
    0.99   7985.   1.252  2.7770 -0.0001 -0.0001 -0.0001 -0.0001
    0.98   7904.   1.265  2.7747 -0.0001 -0.0001 -0.0001 -0.0001
    0.97   7824.   1.278  2.7724 -0.0001 -0.0001 -0.0001 -0.0001
    0.96   7743.   1.291  2.7701 -0.0001 -0.0001 -0.0001 -0.0001
    0.95   7662.   1.305  2.7679 -0.0001 -0.0001 -0.0001 -0.0001
    0.94   7582.   1.319  2.7657 -0.0001 -0.0001 -0.0001 -0.0001
    0.93   7501.   1.333  2.7636 -0.0001 -0.0001 -0.0001 -0.0001
    0.92   7420.   1.348  2.7615 -0.0001 -0.0001 -0.0001 -0.0001
    0.91   7340.   1.362  2.7594 -0.0001 -0.0001 -0.0001 -0.0001
    0.90   7259.   1.378  2.7573 -0.0001 -0.0001 -0.0001 -0.0001
    0.89   7170.   1.393  2.7553 -0.0001 -0.0001 -0.0001 -0.0001
    0.88   7098.   1.409  2.7533 -0.0001 -0.0001 -0.0001 -0.0001
    0.87   7017.   1.425  2.7514 -0.0001 -0.0001 -0.0001 -0.0001
    0.86   6936.   1.442  2.7494 -0.0001 -0.0001 -0.0001 -0.0001
    0.85   6856.   1.459  2.7475 -0.0001 -0.0001 -0.0001 -0.0001
    0.84   6775.   1.476  2.7457 -0.0001 -0.0001 -0.0001 -0.0001
    0.83   6694.   1.494  2.7438 -0.0001 -0.0001 -0.0001 -0.0001
    0.82   6614.   1.512  2.7420 -0.0001 -0.0001 -0.0001 -0.0001
    0.81   6533.   1.531  2.7402 -0.0001 -0.0001 -0.0001 -0.0001
    0.80   6452.   1.550  2.7384 -0.0001 -0.0001 -0.0001 -0.0001
    0.79   6372.   1.569  2.7367 -0.0001 -0.0001 -0.0001 -0.0001
    0.78   6291.   1.589  2.7350 -0.0001 -0.0001 -0.0001 -0.0001
    0.77   6210.   1.610  2.7333 -0.0001 -0.0001 -0.0001 -0.0001
    0.76   6130.   1.631  2.7317 -0.0001 -0.0001 -0.0001 -0.0001
    0.75   6049.   1.653  2.7301 -0.0001 -0.0001 -0.0001 -0.0001
    0.74   5968.   1.675  2.7285 -0.0001 -0.0001 -0.0001 -0.0001
    0.73   5888.   1.698  2.7269 -0.0001 -0.0001 -0.0001 -0.0001
    0.72   5807.   1.722  2.7253 -0.0001 -0.0001 -0.0001 -0.0001
    0.71   5726.   1.746  2.7238 -0.0001 -0.0001 -0.0001 -0.0001
    0.70   5646.   1.771  2.7223 -0.0001 -0.0001 -0.0001 -0.0001
    0.69   5565.   1.797  2.7208 -0.0001 -0.0001 -0.0001 -0.0001
    0.68   5485.   1.823  2.7194 -0.0001 -0.0001 -0.0001 -0.0001
    0.67   5404.   1.851  2.7180 -0.0001 -0.0001 -0.0001 -0.0001
    0.66   5323.   1.879  2.7166 -0.0001 -0.0001 -0.0001 -0.0001
    0.65   5243.   1.907  2.7152 -0.0001 -0.0001 -0.0001 -0.0001
    0.64   5162.   1.937  2.7138 -0.0001 -0.0001 -0.0001 -0.0001
    0.63   5081.   1.968  2.7125 -0.0001 -0.0001 -0.0001 -0.0001
    0.62   5001.   2.000  2.7112 -0.0001 -0.0001 -0.0001 -0.0001
  0.6199   5000.     2.0   2.713 2.71772 -0.0001 -0.0001 -0.0001
    0.61   4920.   2.033  2.7099 -0.0001 -0.0001 -0.0001 -0.0001
    0.60   4839.   2.066  2.7086 -0.0001 -0.0001 -0.0001 -0.0001
    0.59   4759.   2.101  2.7074 -0.0001 -0.0001 -0.0001 -0.0001
    0.58   4678.   2.138  2.7062 -0.0001 -0.0001 -0.0001 -0.0001
    0.57   4597.   2.175  2.7050 -0.0001 -0.0001 -0.0001 -0.0001
    0.56   4517.   2.214  2.7038 -0.0001 -0.0001 -0.0001 -0.0001
    0.55   4436.   2.254  2.7027 -0.0001 -0.0001 -0.0001 -0.0001
    0.54   4355.   2.296  2.7015 -0.0001 -0.0001 -0.0001 -0.0001
    0.53   4275.   2.339  2.7004 -0.0001 -0.0001 -0.0001 -0.0001
    0.52   4194.   2.384  2.6993 -0.0001 -0.0001 -0.0001 -0.0001
    0.51   4113.   2.431  2.6983 -0.0001 -0.0001 -0.0001 -0.0001
    0.50   4033.   2.480  2.6972 -0.0001 -0.0001 -0.0001 -0.0001
  0.4959   4000.     2.5   2.702 -0.0001 -0.0001 -0.0001 -0.0001
    0.49   3952.   2.530  2.6962 -0.0001 -0.0001 -0.0001 -0.0001
    0.48   3871.   2.583  2.6952 -0.0001 -0.0001 -0.0001 -0.0001
    0.47   3791.   2.638  2.6942 -0.0001 -0.0001 -0.0001 -0.0001
    0.46   3710.   2.695  2.6932 -0.0001 -0.0001 -0.0001 -0.0001
    0.45   3629.   2.755  2.6923 -0.0001 -0.0001 -0.0001 -0.0001
    0.44   3549.   2.818  2.6914 -0.0001 -0.0001 -0.0001 -0.0001
    0.43   3468.   2.883  2.6904 -0.0001 -0.0001 -0.0001 -0.0001
    0.42   3388.   2.952  2.6895 -0.0001 -0.0001 -0.0001 -0.0001
  0.4133   3333.     3.0   2.695 2.69933 -0.0001 -0.0001 -0.0001
    0.41   3307.   3.024  2.6887 -0.0001 -0.0001 -0.0001 -0.0001
    0.40   3226.   3.100  2.6878 -0.0001 -0.0001 -0.0001 -0.0001
    0.39   3146.   3.179  2.6870 -0.0001 -0.0001 -0.0001 -0.0001
    0.38   3065.   3.263  2.6861 -0.0001 -0.0001 -0.0001 -0.0001
    0.37   2984.   3.351  2.6853 -0.0001 -0.0001 -0.0001 -0.0001
    0.36   2904.   3.444  2.6845 -0.0001 -0.0001 -0.0001 -0.0001
  0.3542  2857.1     3.5   2.691 -0.0001 -0.0001 -0.0001 -0.0001
    0.35   2823.   3.542  2.6837 -0.0001 -0.0001 -0.0001 -0.0001
    0.34   2742.   3.647  2.6829 -0.0001 -0.0001 -0.0001 -0.0001
    0.33   2662.   3.757  2.6822 -0.0001 -0.0001 -0.0001 -0.0001
 -0.0001    0.32   2581.   3.875  2.6814 -0.0001 -0.0001 -0.0001
    0.31   2500.   4.000  2.6807 2.69258 -0.0001 -0.0001 -0.0001
    0.31   2500.   4.000   2.688 -0.0001 -0.0001 -0.0001 -0.0001
    0.30   2420.   4.133  2.6800 -0.0001 -0.0001 -0.0001 -0.0001
    0.29   2339.   4.275  2.6792 -0.0001 -0.0001 -0.0001 -0.0001
    0.28   2258.   4.428  2.6785 -0.0001 -0.0001 -0.0001 -0.0001
    0.27   2178.   4.592  2.6778 -0.0001 -0.0001 -0.0001 -0.0001
    0.26   2097.   4.769  2.6770 -0.0001 -0.0001 -0.0001 -0.0001
    0.25   2016.   4.959  2.6763 -0.0001 -0.0001 -0.0001 -0.0001
  0.2480   2000.     5.0   2.684 -0.0001 -0.0001 -0.0001 -0.0001
    0.24   1936.   5.166  2.6755 -0.0001 -0.0001 -0.0001 -0.0001
    0.23   1855.   5.391  2.6747 -0.0001 -0.0001 -0.0001 -0.0001
    0.22   1774.   5.636  2.6739 -0.0001 -0.0001 -0.0001 -0.0001
    0.21   1694.   5.904  2.6731 -0.0001 -0.0001 -0.0001 -0.0001
  0.2066   1667.     6.0   2.681 2.68570 2.68198 -0.0001 -0.0001
    0.20   1613.   6.199  2.6722 -0.0001 -0.0001 -0.0001 -0.0001
    0.19   1532.   6.526  2.6713 -0.0001 -0.0001 -0.0001 -0.0001
    0.18   1452.   6.888  2.6703 -0.0001 -0.0001 -0.0001 -0.0001
  0.1771  1428.6     7.0   2.679 -0.0001 -0.0001 -0.0001 -0.0001
    0.17   1371.   7.293  2.6692 -0.0001 -0.0001 -0.0001 -0.0001
    0.16   1290.   7.749  2.6679 -0.0001 -0.0001 -0.0001 -0.0001
  0.1550   1250.     8.0   2.677 2.68044 2.67730 -0.0001 -0.0001
    0.15   1210.   8.266  2.6665 -0.0001 -0.0001 -0.0001 -0.0001
    0.14   1129.   8.856  2.6649 -0.0001 -0.0001 -0.0001 -0.0001
    0.13   1049.   9.537  2.6628 -0.0001 -0.0001 -0.0001 -0.0001
  0.1240   1000.    10.0   2.672 -0.0001 -0.0001 -0.0001 -0.0001
    0.12   967.9   10.33  2.6605 -0.0001 -0.0001 -0.0001 -0.0001
  0.1178   950.0   10.53   2.651 -0.0001 -0.0001 -0.0001 -0.0001
  0.1170    943.    10.6 -0.0001 -0.0001 -0.0001  5.1E-8 -0.0001
  0.1116    900.   11.11   2.650 -0.0001 -0.0001 -0.0001 -0.0001
    0.11   887.2   11.27  2.6574 -0.0001 -0.0001 -0.0001 -0.0001
  0.1054    850.   11.76   2.648 -0.0001 -0.0001 -0.0001 -0.0001
  0.1033   833.3    12.0 -0.0001 2.66932 2.66677 -0.0001 -0.0001
    0.10   806.5   12.40  2.6535 -0.0001 -0.0001 -0.0001 -0.0001
 0.09919    800.   12.50   2.646 -0.0001 -0.0001 -0.0001 -0.0001
 0.09299    750.   13.33   2.643 -0.0001 -0.0001 -0.0001 -0.0001
    0.09   725.9   13.78  2.6482 -0.0001 -0.0001 -0.0001 -0.0001
 0.08856   714.3    14.0 -0.0001 2.66280 2.66020 -0.0001 -0.0001
 0.08679    700.   14.29   2.640 -0.0001 -0.0001 -0.0001 -0.0001
 0.08059    650.   15.38   2.636 -0.0001 -0.0001 -0.0001 -0.0001
    0.08   645.2   15.50  2.6407 -0.0001 -0.0001 -0.0001 -0.0001
 0.07749   625.0    16.0 -0.0001 2.65451 2.65253 -0.0001 -0.0001
 0.07439    600.   16.67   2.630 -0.0001 -0.0001 -0.0001 -0.0001
    0.07   564.6   17.71  2.6296 -0.0001 -0.0001 -0.0001 -0.0001
 0.06888   555.6    18.0 -0.0001 2.64492 2.64366 -0.0001 -0.0001
 0.06819    550.   18.18   2.623 -0.0001 -0.0001 -0.0001 -0.0001
 0.06199   500.0    20.0   2.614 2.63428 2.63343 -0.0001 -0.0001
    0.06   483.9   20.66  2.6118 -0.0001 -0.0001 -0.0001 -0.0001
 0.05636   454.5    22.0 -0.0001 2.62265 2.62177 -0.0001 -0.0001
 0.05579    450.   22.22   2.601 -0.0001 -0.0001 -0.0001 -0.0001
 0.05166   416.7    24.0 -0.0001 2.60928 -0.0001 -0.0001 -0.0001
    0.05   403.3   24.80  2.5801 -0.0001 -0.0001 -0.0001 -0.0001
 0.04959    400.      25 -0.0001   2.581 -0.0001 -0.0001 -0.0001
 0.04835    390.   25.64   2.576 -0.0001 -0.0001 -0.0001 -0.0001
 0.04769   384.6      26 -0.0001 2.59466 -0.0001 -0.0001 -0.0001
 0.04711    380.   26.32   2.570 -0.0001 -0.0001 -0.0001 -0.0001
  0.0469    378.    26.5 -0.0001 -0.0001 -0.0001  8.0E-5 -0.0001
 0.04592   370.3      27 -0.0001 -0.0001 -0.0001 9.88E-5 -0.0001
 0.04587    370.   27.03   2.564 -0.0001 -0.0001 -0.0001 -0.0001
 0.04463    360.   27.78   2.557 -0.0001 -0.0001 -0.0001 -0.0001
 0.04428   357.1      28 -0.0001 2.57724 -0.0001 -0.0001 -0.0001
 0.04215    340.   29.41   2.541 -0.0001 -0.0001 2.97E-3 -0.0001
 0.04133   333.3      30 -0.0001 2.55916 -0.0001 2.86E-4 -0.0001
 0.04092    330.   30.30   2.531 -0.0001 -0.0001 3.34E-4 -0.0001
 0.03968    320.   31.25   2.521 -0.0001 -0.0001 3.79E-4 -0.0001
 0.03844    310.   32.26   2.508 -0.0001 -0.0001 4.32E-4 -0.0001
 0.03757   303.0   33.00 -0.0001 -0.0001 -0.0001 6.57E-4 -0.0001
 0.03720    300.   33.33   2.494 -0.0001 -0.0001 4.97E-4 -0.0001
 0.03701   298.5   33.50 -0.0001 -0.0001 -0.0001 8.13E-4 -0.0001
 0.03647   294.1   34.00 -0.0001 -0.0001 -0.0001 8.93E-4 -0.0001
 0.03596    290.   34.48   2.478 -0.0001 -0.0001 5.77E-3 -0.0001
 0.03594   289.9   34.50 -0.0001 -0.0001 -0.0001 1.08E-2 -0.0001
 0.03542   285.7   35.00 -0.0001 -0.0001 -0.0001 9.19E-3 -0.0001
 0.03493   281.7    35.5 -0.0001 -0.0001 -0.0001 7.91E-3 -0.0001
 0.03472    280.   35.71   2.459 -0.0001 -0.0001 6.76E-3 -0.0001
 0.03444   277.8    36.0 -0.0001 -0.0001 -0.0001 4.58E-3 -0.0001
 0.03397   274.0    36.5 -0.0001 -0.0001 -0.0001 3.92E-3 -0.0001
 0.03351   270.3    37.0 -0.0001 -0.0001 -0.0001 3.83E-3 -0.0001
 0.03348    270.   37.04   2.437 -0.0001 -0.0001 8.01E-3 -0.0001
 0.03306   266.7    37.5 -0.0001 -0.0001 -0.0001 4.03E-3 -0.0001
 0.03263   263.2    38.0 -0.0001 -0.0001 -0.0001 4.54E-3 -0.0001
 0.03224    260.   38.46   2.410 -0.0001 -0.0001 9.62E-3 -0.0001
 0.03220   259.7    38.5 -0.0001 -0.0001 -0.0001 5.06E-3 -0.0001
 0.03179   256.4    39.0 -0.0001 -0.0001 -0.0001 6.21E-3 -0.0001
 0.03139   253.2    39.5 -0.0001 -0.0001 -0.0001 7.23E-3 -0.0001
 0.03100    250.      40   2.378 -0.0001 -0.0001 1.18E-2 -0.0001
 0.03061   246.9    40.5 -0.0001 -0.0001 -0.0001 7.57E-3 -0.0001
 0.03024   243.9    41.0 -0.0001 -0.0001 -0.0001 7.83E-3 -0.0001
 0.02988   241.0    41.5 -0.0001 -0.0001 -0.0001 7.43E-3 -0.0001
 0.02976    240.   41.67   2.339 -0.0001 -0.0001 1.46E-2 -0.0001
 0.02952   238.1    42.0 -0.0001 -0.0001 -0.0001 7.35E-3 -0.0001
 0.02917   235.3    42.5 -0.0001 -0.0001 -0.0001 6.93E-3 -0.0001
 0.02883   232.6    43.0 -0.0001 -0.0001 -0.0001 6.50E-3 -0.0001
 0.02852    230.   43.48   2.289    2.28 -0.0001 1.87E-3 -0.0001
 0.02850   229.9    43.5 -0.0001 -0.0001 -0.0001 6.23E-3 -0.0001
 0.02818   227.3    44.0 -0.0001 -0.0001 -0.0001 5.95E-3 -0.0001
 0.02786   224.7    44.5 -0.0001 -0.0001 -0.0001 5.31E-3 -0.0001
 0.02755   222.2    45.0 -0.0001 -0.0001 -0.0001 5.19E-3 -0.0001
 0.02728    220.   45.45   2.224    2.23 -0.0001 2.47E-2 -0.0001
 0.02725   219.8    45.5 -0.0001 -0.0001 -0.0001 5.43E-3 -0.0001
 0.02695   217.4    46.0 -0.0001 -0.0001 -0.0001 5.86E-3 -0.0001
 0.02666   215.1    46.5 -0.0001 -0.0001 -0.0001 5.92E-3 -0.0001
 0.02638   212.8    47.0 -0.0001 -0.0001 -0.0001 6.54E-3 -0.0001
 0.02610   210.5    47.5 -0.0001 -0.0001 -0.0001 6.80E-3 -0.0001
 0.02604    210.   47.62   2.137    2.18 -0.0001 3.40E-2 -0.0001
 0.02583   208.3    48.0 -0.0001 -0.0001 -0.0001 8.02E-3 -0.0001
 0.02556   206.2    48.5 -0.0001 -0.0001 -0.0001 1.12E-2 -0.0001
 0.02530   204.1    49.0 -0.0001 -0.0001 -0.0001 1.44E-2 -0.0001
 0.02505   202.0    49.5 -0.0001 -0.0001 -0.0001 1.60E-2 -0.0001
 0.02480    200.    50.0   2.013    2.05 -0.0001 4.97E-2 -0.0001
 0.02480    200.    50.0 -0.0001 -0.0001 -0.0001 2.07E-2 -0.0001
 0.02455   198.0    50.5 -0.0001 -0.0001 -0.0001 2.65E-2 -0.0001
 0.02431   196.1    51.0 -0.0001 -0.0001 -0.0001 3.69E-2 -0.0001
 0.02407   194.2    51.5 -0.0001 -0.0001 -0.0001 5.33E-2 -0.0001
 0.02384   192.3    52.0 -0.0001 -0.0001 -0.0001 6.21E-2 -0.0001
 0.02356    190.   52.63   1.824     1.9 -0.0001 8.00E-2 -0.0001
 0.02232    180.   55.56   1.498     1.5 -0.0001   0.154     0.1
 0.02108    170.   58.82  0.8021    0.80 -0.0001   0.522     0.5
 0.02046    165.   60.61  0.5183    0.40 -0.0001    1.17     0.9
 0.01984    160.   62.50  0.5085    0.20 -0.0001    1.89     1.8
 0.01922    155.   64.52  0.6392    0.40 -0.0001    2.71    2.75
 0.01860    150.   66.67   1.021    0.80 -0.0001    3.81     3.7
 0.01835    148.   67.57   1.353 -0.0001 -0.0001    4.41 -0.0001
 0.01810    146.   68.49   1.939 -0.0001 -0.0001    5.12 -0.0001
 0.01798    145.   68.97 -0.0001     1.8 -0.0001 -0.0001     5.2
 0.01785    144.   69.44   3.053 -0.0001 -0.0001    5.87 -0.0001
 0.01767   142.5   70.18 -0.0001     3.8 -0.0001 -0.0001     6.2
 0.01760    142.   70.42   5.009 -0.0001 -0.0001    6.02 -0.0001
 0.01736    140.   71.43   6.778     5.5 -0.0001    4.50     5.5
 0.01711    138.   72.46   6.917 -0.0001 -0.0001    2.65 -0.0001
 0.01686    136.   73.53   6.399 -0.0001 -0.0001    1.59 -0.0001
 0.01674    135.   74.07 -0.0001    6.75 -0.0001 -0.0001     2.2
 0.01661    134.   74.63   5.882 -0.0001 -0.0001    1.03 -0.0001
 0.01636    132.   75.76   5.468 -0.0001 -0.0001   0.722 -0.0001
 0.01612    130.   76.92   5.146     5.1 -0.0001   0.534     0.8
 0.01550    125.   80.00   4.598     4.7 -0.0001   0.294    0.55
 0.01488    120.   83.33   4.260     4.4 -0.0001   0.187     0.3
 0.01426    115.   86.96   4.032 -0.0001 -0.0001   0.129 -0.0001
 0.01364    110.   90.91   3.868     3.9 -0.0001 9.47E-2    0.25
 0.01302    105.   95.24   3.745 -0.0001 -0.0001 7.23E-2 -0.0001
 0.01240    100.     100   3.649    3.62 -0.0001 5.68E-2     0.2
 0.01118     90.   111.1   3.510    3.45 -0.0001 3.75E-2     0.2
 0.01033   83.33     120 -0.0001 -0.0001 -0.0001   0.111 -0.0001
 0.009919     80.     125   3.415    3.32 -0.0001 2.62E-2     0.2
 0.009537   76.92     130 -0.0001 -0.0001 -0.0001   0.103 -0.0001
 0.009184   74.07     135 -0.0001 -0.0001 -0.0001 9.34E-2 -0.0001
 0.008856   71.43     140 -0.0001 -0.0001 -0.0001   0.116 -0.0001
 0.008679     70.   142.9   3.348     3.3 -0.0001 1.89E-2     0.2
 0.008551   68.97     145 -0.0001 -0.0001 -0.0001   0.108 -0.0001
 0.008266   66.67     150 -0.0001 -0.0001 -0.0001 8.27E-2 -0.0001
 0.007749   62.50     160 -0.0001 -0.0001 -0.0001 6.86E-2 -0.0001
 0.007439     60.   166.7   3.299     3.3 -0.0001 1.39E-2 -0.0001
 0.007293   58.82     170 -0.0001 -0.0001 -0.0001 6.05E-2 -0.0001
 0.006888   55.56     180 -0.0001 -0.0001 -0.0001 5.67E-2 -0.0001
 0.006526   52.63     190 -0.0001 -0.0001 -0.0001 5.56E-2 -0.0001
 0.006526   52.63     190 -0.0001 -0.0001 -0.0001 2.42E-2 -0.0001
 0.006199     50.     200   3.263     3.3 -0.0001 1.03E-2 -0.0001
 0.006199     50.     200 -0.0001 -0.0001 -0.0001 1.83E-2 -0.0001
 0.006199     50.     200 -0.0001 -0.0001 -0.0001 5.32E-2 -0.0001
 0.005904   47.62     210 -0.0001 -0.0001 -0.0001 5.18E-2 -0.0001
 0.005767   46.51     215 -0.0001 -0.0001 -0.0001 5.37E-2 -0.0001
 0.0056956  45.938  217.68  3.2733 -0.0001 -0.0001 -0.0001 -0.0001
 0.005636   45.45     220 -0.0001 -0.0001 -0.0001 5.46E-2 -0.0001
 0.0055904  45.089  221.78  3.2720 -0.0001 -0.0001 -0.0001 -0.0001
 0.005510   44.44     225 -0.0001 -0.0001 -0.0001 4.24E-2 -0.0001
 0.005391   43.48     230 -0.0001 -0.0001 -0.0001 3.96E-2 -0.0001
 0.0052828  42.608  234.70  3.2628 -0.0001 -0.0001 -0.0001 -0.0001
 0.0051798  41.778  239.36  3.2597 -0.0001 -0.0001 -0.0001 -0.0001
 0.0050756  40.937  244.28  3.2574 -0.0001 -0.0001 -0.0001 -0.0001
 0.0049712  40.095  249.41  3.2550 -0.0001 -0.0001 -0.0001 -0.0001
 0.004959     40.   250.0   3.236 -0.0001 -0.0001 7.52E-3 -0.0001
 0.004959     40.   250.0 -0.0001 -0.0001 -0.0001 8.55E-3 -0.0001
 0.0042395  34.194  292.45  3.2360 -0.0001 -0.0001 -0.0001 -0.0001
 0.0041293  33.305  300.25  3.2371 -0.0001 -0.0001 -0.0001 -0.0001
 0.0038128  30.752  325.18  3.2294 -0.0001 -0.0001 -0.0001 -0.0001
 0.003720     30.   333.3   3.217 -0.0001 -0.0001 -0.0001 -0.0001
 0.0031678  25.550  391.39  3.2203 -0.0001 -0.0001 -0.0001 -0.0001
 0.003100   25.00     400 -0.0001 -0.0001 -0.0001 5.09E-3 -0.0001
 0.0028443  22.941  435.90  3.2155 -0.0001 -0.0001 -0.0001 -0.0001
 0.0025176  20.306  492.46  3.2136 -0.0001 -0.0001 -0.0001 -0.0001
 0.002480     20.   500.0  3.2096 -0.0001 -0.0001 4.77E-3 -0.0001
 0.0023015  18.563  538.71  3.2096 -0.0001 -0.0001 -0.0001 -0.0001
 0.002066   16.67     600 -0.0001 -0.0001 -0.0001 5.16E-3 -0.0001
 0.0019749  15.929  627.78  3.2062 -0.0001 -0.0001 -0.0001 -0.0001
 0.001771   14.29     700 -0.0001 -0.0001 -0.0001 5.57E-3 -0.0001
 0.001550   12.50     800 -0.0001 -0.0001 -0.0001 6.18E-3 -0.0001
