;UO 
;UO Co-c.ASC: Values of n and k for fcc cobalt films from various
;UO references in HOCII (pg. 445). Reference is 17.
;UO 
;UO From HANDBOOK OF OPTICAL CONSTANTS IN SOLIDS II edited by Edward D.
;UO Palik. Copyright (c) 1991 by Academic Press, Inc. Reproduced by
;UO permission of the publisher.
;UO ------------------------------------------------------------ 
;UO   eV           cm-1       um         n        k            
;UO ------------------------------------------------------------	
;N  5
;L  Energy[eV]  Wavelength[cm-1]  Wavelength[um]  n  k  
   1.240  10000.    1.00    2.30    5.27
   1.033   8333.    1.20    2.90    6.77
  0.8856   7143.    1.40    3.36    7.39
  0.7749   6250.    1.60    6.20    9.46
  0.6888   5555.    1.80    7.80    8.46
  0.6199   5000.    2.00    6.10    7.06
  0.5636   4545.    2.20    4.96    6.75
  0.5166   4167.    2.40    4.60    6.80
  0.4769   3846.    2.60    4.68    7.17
  0.4428   3571.    2.80    4.60    7.68
  0.4133   3333.    3.00    4.39    8.13
  0.3875   3125.    3.20    4.50    8.51
  0.3647   2941.    3.40    4.77    9.08
  0.3444   2778.    3.60    4.56    9.66
  0.3263   2632.    3.80    4.74   10.16
  0.3100   2500.    4.00    5.01   10.61
  0.2818   2273.    4.40    5.45   11.58
  0.2583   2083.    4.80    5.45   12.11
  0.2384   1923.    5.20    5.61   13.48
  0.2214   1786.    5.60    5.67   14.42
  0.2067   1667.    6.00    6.13   15.38
  0.1937   1563.    6.40    6.52   16.26
  0.1771   1429.    7.00    6.76   17.22
  0.1675   1351.    7.40    7.03   18.15
  0.1550   1250.    8.00    7.36   19.56
  0.1476   1190.    8.40    7.62   20.41
  0.1376   1111.    9.00    7.97   21.64
  0.1292   1042.    9.60    8.18   22.84
  0.1240   1000.   10.00    8.42   23.63
  0.1181    952.   10.50    8.77   24.47
  0.1127    909.   11.00    9.09   25.16
  0.1078    870.   11.50    9.39   25.88
  0.1033    833.   12.00    9.70   26.47
 0.09919    800.   12.50   10.03   26.91
 0.09537    769.   13.00   10.30   27.38
