;UO 
;UO Cr.ASC: Values of n and k for polycrystalline chromium from various
;UO references in HOCII (pg. 378).  References are 3, 8, 12, 28.
;UO 
;UO From HANDBOOK OF OPTICAL CONSTANTS IN SOLIDS II edited by Edward D.
;UO Palik. Copyright (c) 1991 by Academic Press, Inc. Reproduced by
;UO permission of the publisher.
;UO -------------------------------------------------------------- 
;UO       eV    cm-1       um           n             k 
;UO --------------------------------------------------------------	
;N  5
;L  Energy[eV]  Wavelength[cm-1]  Wavelength[um]  n  k  
  10000. 80655000. 0.0001240 0.9999862 9.71E-07
   9549. 77017000. 0.0001298 0.9999847 1.15E-06
   9117. 73533000. 0.0001360 0.9999833 1.37E-06
   8706. 70218000. 0.0001424 0.9999818 1.62E-06
   8313. 67049000. 0.0001492 0.9999802 1.92E-06
   7937. 64016000. 0.0001562 0.9999783 2.27E-06
   7579. 61128000. 0.0001636 0.9999764 2.69E-06
   7237. 58370000. 0.0001713 0.9999744 3.17E-06
   6910. 55733000. 0.0001794 0.9999723 3.74E-06
   6598. 53216000. 0.0001879 0.9999703 4.40E-06
   6300. 50813000. 0.0001968 0.9999686 5.17E-06
   6156. 49651000. 0.0002014 0.9999682 5.60E-06
   6015. 48514000. 0.0002061 0.9999723 6.06E-06
   5878. 47409000. 0.0002109 0.9999663 8.00E-07
   5744. 46328000. 0.0002159 0.9999633 8.71E-07
   5613. 45272000. 0.0002209 0.9999608 9.49E-07
   5484. 44231000. 0.0002261 0.9999585 1.03E-06
   5237. 42239000. 0.0002368 0.9999537 1.23E-06
   5000. 40328000. 0.0002480 0.9999486 1.46E-06
   4775. 38513000. 0.0002597 0.9999432 1.73E-06
   4559. 36771000. 0.0002720 0.9999374 2.05E-06
   4353. 35109000. 0.0002848 0.9999309 2.44E-06
   4157. 33528000. 0.0002983 0.9999238 2.90E-06
   3969. 32012000. 0.0003124 0.9999161 3.45E-06
   3790. 30568000. 0.0003272 0.9999076 4.10E-06
   3619. 29189000. 0.0003426 0.999898 4.87E-06
   3455. 27866000. 0.0003588 0.999888 5.80E-06
   3299. 26608000. 0.0003758 0.999877 6.89E-06
   3150. 25406000. 0.0003936 0.999865 8.20E-06
   3008. 24261000. 0.0004122 0.999851 9.75E-06
   2872. 23164000. 0.0004317 0.999836 1.16E-05
   2742. 22116000. 0.0004521 0.999820 1.38E-05
   2619. 21124000. 0.0004735 0.999802 1.64E-05
   2500. 20164000. 0.0004959 0.999782 1.95E-05
   2387. 19252000. 0.0005193 0.999760 2.32E-05
   2280. 18389000. 0.0005439 0.999737 2.75E-05
   2177. 17559000. 0.0005696 0.999711 3.27E-05
   2078. 16760000. 0.0005965 0.999682 3.88E-05
   1985. 16010000. 0.0006248 0.999651 4.60E-05
   1895. 15284000. 0.0006543 0.999616 5.45E-05
   1809. 14590000. 0.0006852 0.999579 6.46E-05
   1728. 13937000. 0.0007176 0.999538 7.65E-05
   1650. 13308000. 0.0007516 0.999493 9.05E-05
   1575. 12703000. 0.0007871 0.999445 1.07E-04
   1504. 12131000. 0.0008244 0.999392 1.26E-04
   1436. 11582000. 0.0008633 0.999335 1.49E-04
   1371. 11058000. 0.0009041 0.999273 1.75E-04
   1309. 10558000. 0.0009469 0.999206 2.06E-04
   1250. 10082000. 0.0009917 0.999133 2.43E-04
   1194. 9630200. 0.001039 0.999055 2.85E-04
   1140. 9194700. 0.001088 0.99897 3.34E-04
   1088. 8775300. 0.001139 0.99888 3.93E-04
   1039. 8380100. 0.001193 0.99879 4.61E-04
   992.3 8003400. 0.001249 0.99869 5.42E-04
   947.5 7642100. 0.001309 0.99859 6.39E-04
   904.7 7296900. 0.001370 0.99849 7.48E-04
   863.9 6967800. 0.001435 0.99839 8.83E-04
   824.9 6653200. 0.001503 0.99831 1.04E-03
   787.7 6353200. 0.001574 0.99825 1.20E-03
   752.1 6066100. 0.001649 0.99820 1.38E-03
   734.9 5927300. 0.001687 0.99819 1.48E-03
   718.1 5791800. 0.001727 0.99820 1.59E-03
   701.7 5659600. 0.001767 0.99827 1.71E-03
   685.7 5530500. 0.001808 0.99828 1.62E-03
   670.0 5403900. 0.001851 0.99822 1.73E-03
   654.7 5280500. 0.001894 0.99822 1.84E-03
   639.8 5160300. 0.001938 0.99824 1.97E-03
   610.9 4927200. 0.002030 0.99846 2.33E-03
   596.9 4814300. 0.002077 0.99879 2.55E-03
   583.3 4704600. 0.002126 0.999636 2.78E-03
   570.0 4597300. 0.002175 1.000161 3.41E-04
   557.0 4492500. 0.002226 0.999117 3.68E-04
   544.2 4389200. 0.002278 0.99862 3.97E-04
   531.8 4289200. 0.002331 0.99828 4.27E-04
   519.7 4191600. 0.002386 0.99800 4.58E-04
   507.8 4095700. 0.002442 0.99775 4.91E-04
   484.9 3911000. 0.002557 0.99728 5.63E-04
   463.0 3734300. 0.002678 0.99683 6.45E-04
   442.1 3565800. 0.002804 0.99638 7.37E-04
   422.1 3404400. 0.002937 0.99590 8.42E-04
   403.0 3250400. 0.003077 0.99538 9.71E-04
   384.8 3103600. 0.003222 0.99484 1.12E-03
   367.5 2964100. 0.003374 0.99426 1.31E-03
   350.9 2830200. 0.003533 0.99365 1.53E-03
   335.0 2701900. 0.003701 0.99301 1.76E-03
   319.9 2580100. 0.003876 0.99232 2.02E-03
   305.5 2464000. 0.004058 0.99157 2.31E-03
   291.7 2352700. 0.004250 0.99078 2.64E-03
   278.5 2246200. 0.004452  0.9899 3.00E-03
   265.9 2144600. 0.004663  0.9890 3.39E-03
   253.9 2047800. 0.004883  0.9880 3.83E-03
   242.5 1955900. 0.005115  0.9870 4.32E-03
   231.5 1867200. 0.005356  0.9858 4.87E-03
   221.1 1783300. 0.005608  0.9846 5.49E-03
   211.1 1702600. 0.005873  0.9833 6.15E-03
   201.5 1625200. 0.006153  0.9818 6.86E-03
   192.4 1551800. 0.006444  0.9802 7.66E-03
   183.7 1481600. 0.006749  0.9785 8.63E-03
   175.5 1415500. 0.007069  0.9767 9.77E-03
   167.5 1351000. 0.007402  0.9749 1.11E-02
   160.0 1290500. 0.007749  0.9730 1.23E-02
   152.7 1231600. 0.008119  0.9710 1.36E-02
   145.8 1175900. 0.008504  0.9687 1.51E-02
   139.3 1123500. 0.008901  0.9662 1.67E-02
   133.0 1072700. 0.009322  0.9637 1.86E-02
   127.0 1024300. 0.009763  0.9611 2.05E-02
   121.2 977540. 0.01023  0.9583 2.25E-02
   115.8 933980. 0.01071  0.9553 2.45E-02
   110.5 891240. 0.01122  0.9518 2.64E-02
   105.5 850910. 0.01175  0.9476 2.88E-02
   100.8 813000. 0.01230  0.9431 3.15E-02
   96.22 776060. 0.01289  0.9380 3.48E-02
   91.88 741060. 0.01349  0.9326 3.88E-02
   87.73 707590. 0.01414  0.9270 4.34E-02
   83.77 675650. 0.01480  0.9209 4.84E-02
   79.99 645160. 0.01550  0.9139 5.43E-02
   78.16 630400. 0.01585  0.9104 5.79E-02
   76.37 615960. 0.01623  0.9068 6.17E-02
   74.63 601930. 0.01662  0.9030 6.58E-02
   72.92 588140. 0.01701  0.8990 7.08E-02
   71.26 574750. 0.01739  0.8954 7.62E-02
   69.63 561600. 0.01781  0.8918 8.21E-02
   68.04 548780. 0.01823  0.8886 8.91E-02
   64.97 524020. 0.01907  0.8850   0.104
   62.04 500380. 0.02000  0.8841   0.120
   59.24 477800. 0.02094  0.8882   0.136
   56.56 456180. 0.02191  0.8970   0.150
   54.01 435620. 0.02296  0.9077   0.157
   51.57 415940. 0.02403  0.9207   0.159
    200. 1613100. 0.006199 -0.0001 6.0E-03
    150. 1209800. 0.008266 -0.0001 1.2E-02
    140. 1129200. 0.008856 -0.0001 1.3E-02
    130. 1048500. 0.009537 -0.0001 1.6E-02
    125. 1008200. 0.009919 -0.0001 1.7E-02
    120. 967860. 0.01033 -0.0001 1.9E-02
    115. 927530. 0.01078 -0.0001 2.0E-02
    110. 887210. 0.01127 -0.0001 2.3E-02
    105. 846880. 0.01181 -0.0001 2.60E-02
    100. 806550. 0.01240 -0.0001 2.90E-02
    95.0 766220. 0.01305 -0.0001 3.20E-02
    90.0 725900. 0.01378 -0.0001 3.60E-02
    85.0 685570. 0.01459 -0.0001 4.30E-02
    80.0 645240. 0.01550 -0.0001 5.10E-02
    75.0 604910. 0.01653 -0.0001 6.20E-02
    70.0 564590. 0.01771 -0.0001 7.80E-02
    65.0 524260. 0.01907 -0.0001   0.100
    60.0 483930. 0.02066 -0.0001   0.132
    59.0 475860. 0.02101 -0.0001   0.139
    58.0 467800. 0.02138 -0.0001   0.148
    57.0 459730. 0.02175 -0.0001   0.159
    56.0 451670. 0.02214 -0.0001   0.167
    55.0 443600. 0.02254 -0.0001   0.172
    54.0 435540. 0.02296 -0.0001   0.177
    53.0 427470. 0.02339 -0.0001   0.182
    52.0 419410. 0.02384 -0.0001   0.182
    51.0 411340. 0.02431 -0.0001   0.182
    50.0 403280. 0.02480 -0.0001   0.184
    49.0 395210. 0.02530 -0.0001   0.189
    48.0 387140. 0.02583 -0.0001   0.195
    47.0 379080. 0.02638 -0.0001   0.197
    46.0 371010. 0.02695 -0.0001   0.195
    45.0 362950. 0.02755 -0.0001   0.182
    44.0 354880. 0.02818 -0.0001   0.164
    43.0 346820. 0.02883 -0.0001 9.2E-02
    42.0 338750. 0.02952 -0.0001 8.2E-02
    41.0 330690. 0.03024 -0.0001 8.3E-02
    40.0 322620. 0.03100 -0.0001 8.6E-02
    35.0 282290. 0.03542 -0.0001   0.121
    29.5 237930. 0.04203    0.78    0.21
    28.8 232290. 0.04305    0.77    0.22
    28.2 227450. 0.04397    0.75    0.23
    27.6 222610. 0.04492    0.73    0.25
    27.0 217770. 0.04592    0.72    0.26
    26.4 212930. 0.04696    0.71    0.28
    25.8 208090. 0.04806    0.70    0.31
    25.3 204060. 0.04901    0.68    0.33
    24.8 200020. 0.04999    0.68    0.36
    24.3 195990. 0.05102    0.67    0.39
    23.9 192770. 0.05188    0.68    0.43
    23.4 188730. 0.05299    0.68    0.45
    23.0 185510. 0.05391    0.69    0.48
    22.5 181470. 0.05510    0.70    0.50
    22.1 178250. 0.05610    0.71    0.52
    21.8 175830. 0.05687    0.72    0.54
    21.4 172600. 0.05794    0.73    0.56
    21.0 169380. 0.05904    0.74    0.58
    20.7 166960. 0.05990    0.74    0.60
    20.3 163730. 0.06108    0.75    0.62
    20.0 161310. 0.06199    0.77    0.64
    19.7 158890. 0.06294    0.78    0.65
    19.4 156470. 0.06391    0.80    0.67
    19.1 154050. 0.06491    0.82    0.68
    18.8 151630. 0.06595    0.83    0.68
    18.5 149210. 0.06702    0.84    0.69
    18.2 146790. 0.06812    0.85    0.70
    18.0 145180. 0.06888    0.87    0.70
    17.7 142760. 0.07005    0.87    0.71
    17.5 141150. 0.07085    0.88    0.72
    17.2 138730. 0.07208    0.89    0.72
    17.0 137110. 0.07293    0.90    0.73
    16.8 135500. 0.07380    0.90    0.74
    16.5 133080. 0.07514    0.91    0.75
    16.3 131470. 0.07606    0.92    0.76
    16.1 129850. 0.07701    0.92    0.77
    15.7 126630. 0.07897    0.95    0.79
    15.5 125010. 0.07999    0.96    0.80
    15.3 123400. 0.08104    0.97    0.80
    14.9 120180. 0.08321    1.00    0.82
    14.8 119370. 0.08377    1.01    0.82
    14.6 117760. 0.08492    1.03    0.82
    14.3 115340. 0.08670    1.06    0.82
    13.9 112110. 0.08920    1.09    0.82
    13.8 111300. 0.08984    1.10    0.82
    13.5 108880. 0.09184    1.12    0.80
    13.3 107270. 0.09322    1.13    0.80
    13.1 105660. 0.09465    1.15    0.77
    12.8 103240. 0.09686    1.15    0.75
    12.5 100820. 0.09919    1.15    0.73
    12.3  99205.  0.1008    1.14    0.71
    12.0  96786.  0.1033    1.13    0.70
    11.7  94366.  0.1060    1.10    0.69
    11.5  92753.  0.1078    1.09    0.69
    11.3  91140.  0.1097    1.07    0.69
    11.1  89527.  0.1117    1.05    0.69
    10.8  87107.  0.1148    1.03    0.70
    10.5  84688.  0.1181    1.01    0.72
    10.3  83074.  0.1204    1.00    0.72
    10.0  80655.  0.1240    0.98    0.73
    9.76  78719.  0.1270    0.95   0.730
    9.54  76945.  0.1300    0.92   0.740
    9.25  74606.  0.1340    0.86   0.770
    9.05  72993.  0.1370    0.83   0.810
    8.92  71944.  0.1390    0.81   0.830
    8.73  70412.  0.1420    0.78   0.870
    8.61  69444.  0.1440    0.76   0.890
    8.49  68476.  0.1460    0.74   0.920
    8.32  67105.  0.1490    0.72   0.970
    8.21  66218.  0.1510    0.71    1.00
    8.10  65330.  0.1531    0.69    1.04
    8.00  64524.  0.1550    0.68    1.07
    7.90  63717.  0.1569    0.68    1.11
    7.80  62911.  0.1590    0.67    1.15
    7.70  62104.  0.1610    0.67    1.19
    7.61  61378.  0.1629    0.66    1.23
    7.52  60652.  0.1649    0.67    1.27
    7.38  59523.  0.1680    0.69    1.33
    7.29  58797.  0.1701    0.70    1.36
    7.21  58152.  0.1720    0.71    1.39
    7.13  57507.  0.1739    0.72    1.42
    7.01  56539.  0.1769    0.74    1.45
    6.89  55571.  0.1799    0.76    1.49
    6.81  54926.  0.1821    0.75    1.51
    6.70  54039.  0.1851    0.78    1.57
    6.60  53232.  0.1879    0.80    1.59
    6.49  52345.  0.1910    0.82    1.63
    6.39  51538.  0.1940    0.85    1.66
    6.29  50732.  0.1971    0.88    1.68
    6.20  50006.  0.2000    0.89    1.69
    6.11  49280.  0.2029    0.92    1.72
    5.99  48312.  0.2070    0.94    1.73
    5.90  47586.  0.2101    0.96    1.73
    5.79  46699.  0.2141    0.97    1.74
    5.71  46054.  0.2171    0.97    1.75
    5.61  45247.  0.2210    0.95    1.74
    5.51  44441.  0.2250    0.94    1.76
    5.39  43473.  0.2300    0.93    1.80
    5.30  42747.  0.2339    0.90    1.83
    5.21  42021.  0.2380    0.87    1.87
    5.10  41134.  0.2431    0.86    1.94
    5.00  40327.  0.2480    0.85    2.01
    4.90  39521.  0.2530    0.86    2.07
    4.80  38714.  0.2583    0.86    2.13
    4.70  37908.  0.2638    0.86    2.21
    4.60  37101.  0.2695    0.88    2.28
    4.50  36295.  0.2755    0.89    2.35
    4.40  35488.  0.2818    0.90    2.42
    4.32  34843.  0.2870    0.91    2.49
    4.22  34036.  0.2938    0.94    2.58
    4.13  33310.  0.3002    0.98    2.67
    4.03  32504.  0.3077    1.02    2.76
    3.92  31617.  0.3163    1.06    2.85
    3.83  30891.  0.3237    1.12    2.95
    3.72  30004.  0.3333    1.18    3.04
    3.63  29278.  0.3416    1.26    3.12
    3.53  28471.  0.3512    1.33    3.18
    3.42  27584.  0.3625    1.39    3.24
    3.33  26858.  0.3723    1.43    3.31
    3.22  25971.  0.3850    1.44    3.40
    3.13  25245.  0.3961    1.48    3.54
    3.03  24438.  0.4092    1.54    3.71
    2.92  23551.  0.4246    1.65    3.89
    2.83  22825.  0.4381    1.80    4.06
    2.72  21938.  0.4558    1.99    4.22
    2.63  21212.  0.4714    2.22    4.36
    2.53  20406.  0.4901    2.49    4.44
    2.42  19518.  0.5123    2.75    4.46
    2.33  18793.  0.5321    2.98    4.45
    2.22  17905.  0.5585    3.18    4.41
    2.13  17179.  0.5821    3.34    4.38
    2.03  16373.  0.6108    3.48    4.36
    1.77  14276.  0.7005    3.84    4.37
    1.52  12260.  0.8157    4.23    4.34
    1.50  12098.  0.8266    4.27    4.33
    1.46  11776.  0.8492    4.31    4.32
    1.44  11615.  0.8610    4.33    4.32
    1.40  11292.  0.8856    4.38    4.31
    1.36  10969.  0.9116    4.42    4.30
    1.32  10646.  0.9393    4.47    4.29
    1.28  10324.  0.9686    4.49    4.28
    1.24  10001.  0.9999    4.50    4.28
    1.20   9679.   1.033    4.52    4.29
    1.16   9356.   1.069    4.53    4.30
    1.12   9033.   1.107    4.53    4.31
    1.08   8711.   1.148    4.53    4.34
    1.04   8388.   1.192    4.51    4.36
    1.00   8065.   1.240    4.47    4.43
    0.96   7743.   1.292    4.47    4.50
    0.92   7420.   1.348    4.45    4.56
    0.90   7259.   1.378    4.43    4.60
    0.86   6936.   1.442    4.35    4.66
    0.82   6614.   1.512    4.24    4.81
    0.78   6291.   1.590    4.13    5.03
    0.74   5968.   1.675    4.06    5.30
    0.70   5646.   1.771    4.01    5.59
    0.66   5323.   1.879    3.96    5.95
    0.62   5001.   2.000    4.01    6.31
    0.58   4678.   2.138    4.01    6.65
    0.54   4355.   2.296    3.92    7.06
    0.50   4033.   2.480    3.83    7.58
    0.46   3710.   2.695    3.72    8.20
    0.42   3388.   2.952    3.47    8.97
    0.38   3065.   3.263    3.09    10.2
    0.34   2742.   3.647    2.89    12.0
    0.30   2420.   4.133    3.15    14.3
    0.26   2097.   4.769    3.91    17.1
    0.22   1774.   5.636    5.30    20.6
    0.18   1452.   6.888    8.73    25.4
    0.14   1129.   8.856    15.3    26.4
    0.10   806.5   12.40    11.8    29.8
    0.09   725.9   13.78    11.8    33.9
    0.08   645.2   15.50    13.6    42.2
    0.06   483.9   20.66    21.2    42.0
    0.04   322.6   31.00    14.9    65.2
