;UO 
;UO Cu.ASC: Values of n and k for polycrystalline copper from
;UO various references in HOCI (pg. 238).  References are 14, 22.
;UO 
;UO Copyright (c) 1995 the Optical Society of America.  Contains data
;UO from HANDBOOK OF OPTICAL CONSTANTS IN SOLIDS edited by Edward D.
;UO Palik. Copyright (c) 1985 by Academic Press, Inc. Reproduced by
;UO permission of the publisher.
;UO ------------------------------------------------------------
;UO      eV   cm-1      um          n        k 
;UO ------------------------------------------------------------
;N  5
;L  Energy[eV]  Wavelength[cm-1]  Wavelength[um]  n  k  
    9000 72590000 0.0001378  1.0010 3.65E-7
    8900 71780000 0.0001393  1.0010 3.56E-7
    8000 64520000 0.0001550  1.0010 5.38E-7
    4000 32260000 0.0003099  1.0000 6.62E-6
    3000 24200000 0.0004133  1.0000 9.49E-5
    1500 12100000 0.0008265  1.0000 2.73E-4
    1200 9679000 0.001033   0.999 6.24E-4
    1100 8872000 0.001127   0.999 8.23E-4
    1000 8065500 0.001240   0.999 8.51E-4
     900 7259000 0.001378   1.000 1.74E-4
     800 6452000 0.001550   0.999 2.63E-4
     700 5646000 0.001771   0.998 3.95E-4
     600 4839000 0.002066   0.997 6.51E-4
     500 4033000 0.002480   0.997 1.11E-3
     400 3226000 0.003099   0.993 2.45E-3
     300 2420000 0.004133   0.988 5.13E-3
     200 1613000 0.006199   0.978 1.59E-2
     150 1210000 0.008265   0.969 3.10E-2
     120  967900 0.01033   0.965 5.40E-2
     110  887200 0.01127   0.968 5.99E-2
     105  846900 0.01181   0.968 6.25E-2
     100  806550 0.01240   0.967 6.53E-2
      95  766200 0.01305   0.965 6.93E-2
      92  742000 0.01348   0.963 7.44E-2
      90  725900 0.01378   0.963 7.88E-2
      88  709800 0.01409   0.963 8.34E-2
      86  693600 0.01442   0.966 8.77E-2
      84  677500 0.01476   0.969 9.11E-2
      83  669400 0.01494   0.971 9.23E-2
      82  661400 0.01512   0.973 9.34E-2
      81  653300 0.01531   0.974 9.43E-2
      80  645200 0.01550   0.977 9.46E-2
      79  637200 0.01569   0.979 9.41E-2
      78  629100 0.01589   0.980 9.36E-2
      77  621000 0.01610   0.982 9.21E-2
      76  613000 0.01631   0.984 9.10E-2
      75  604900 0.01653   0.983 8.72E-2
      74  596800 0.01675   0.979 8.50E-2
      73  588700 0.01698   0.977 8.57E-2
      72  580700 0.01722   0.975 8.68E-2
      71  572600 0.01746   0.974 8.81E-2
      70  564600 0.01771   0.972 8.93E-2
      68  548400 0.01823   0.968 9.27E-2
      66  532300 0.01878   0.967 9.63E-2
      64  516200 0.01937   0.965   0.102
      62  500100 0.02000   0.965   0.107
      60  483900 0.02066   0.966   0.109
      58  467800 0.02138   0.964   0.110
      56  451700 0.02214   0.960   0.114
      54  435500 0.02296   0.957   0.120
      52  419400 0.02384   0.954   0.126
      50  403300 0.02480   0.953   0.134
      48  387100 0.02583   0.952   0.140
      46  371000 0.02695   0.951   0.146
      44  354900 0.02818   0.948   0.151
      42  338700 0.02952   0.942   0.157
      40  322600 0.03099   0.934   0.167
      38  306500 0.03263   0.927   0.180
      36  290400 0.03444   0.922   0.193
      34  274200 0.03646   0.910   0.205
      32  258100 0.03874   0.891   0.223
      30  242000 0.04133   0.856   0.262
      29  233900 0.04275   0.849   0.302
      28  225800 0.04428   0.862   0.346
      27  217800 0.04592   0.884   0.382
      26  209700 0.04768   0.921   0.403
      25  201600 0.04959   0.960   0.396
      24  193600 0.05166   0.961   0.373
      23  185500 0.05390   0.943   0.366
      22  177400 0.05635   0.917   0.381
      21  169400 0.05904   0.897   0.411
      20  161300 0.06199   0.882   0.455
      19  153200 0.06525   0.883   0.507
      18  145200 0.06888   0.890   0.561
      17  137100 0.07293   0.913   0.620
      16  129000 0.07749   0.954   0.673
    15.5  125000 0.07999   0.981   0.695
      15  121000 0.08265    1.01   0.707
    14.5  116900 0.08550    1.03   0.717
      14  112900 0.08856    1.06   0.724
      13  104800 0.09537    1.08   0.724
      12   96790  0.1033    1.09   0.731
      11   88720  0.1127    1.07   0.754
      10   80655  0.1240    1.04   0.818
     9.5   76620  0.1305    1.03   0.867
     9.0   72590  0.1378    1.03   0.921
     8.5   68560  0.1459    1.03   0.979
     8.0   64520  0.1550    1.03    1.03
     7.5   60490  0.1653    1.01    1.09
     7.0   56460  0.1771   0.972    1.20
     6.5   52430  0.1907   0.958    1.37
     6.0   48390  0.2066    1.04    1.59
     5.8   46780  0.2138    1.10    1.67
     5.6   45170  0.2114    1.18    1.74
     5.4   43550  0.2296    1.28    1.78
     5.2   41940  0.2384    1.38    1.80
     5.0   40330  0.2480    1.47    1.78
     4.8   38710  0.2583    1.53    1.71
     4.6   37100  0.2695    1.52    1.67
     4.4   35490  0.2818    1.49    1.64
     4.2   33880  0.2952    1.42    1.64
     4.0   32260  0.3099    1.34    1.72
     3.8   30650  0.3263    1.34    1.81
     3.6   29040  0.3444    1.31    1.87
     3.4   27420  0.3646    1.27    1.95
     3.2   25810  0.3874    1.18    2.21
     3.0   24200  0.4133    1.18    2.21
     2.8   22580  0.4428    1.17    2.36
     2.6   20970  0.4768    1.15    2.50
     2.4   19360  0.5166    1.12    2.60
     2.3   18550  0.5390    1.04    2.59
     2.2   17740  0.5635   0.826    2.60
     2.1   16940  0.5904   0.468    2.81
     2.0   16130  0.6199   0.272    3.24
     1.9   15320  0.6525   0.214    3.67
    1.85   14920  0.6702   0.215    3.86
    1.80   14520  0.6888   0.213    4.05
    1.75   14110  0.7084   0.214    4.24
    1.70   13710  0.7293   0.223    4.43
    1.50   12100  0.8265   0.260    5.26
    1.00    8065   1.240   0.433    8.46
    0.98    7904   1.265   0.496    6.78
    0.96    7743   1.291   0.505    6.92
    0.94    7582   1.319   0.515    7.06
    0.92    7420   1.348   0.525    7.21
    0.90    7259   1.378   0.536    7.36
    0.88    7098   1.409   0.547    7.53
    0.86    6937   1.442   0.559    7.70
    0.84    6775   1.476   0.572    7.88
    0.82    6614   1.512   0.586    8.06
    0.80    6453   1.550   0.606    8.26
    0.78    6291   1.589   0.627    8.47
    0.76    6130   1.631   0.649    8.69
    0.74    5969   1.675   0.672    8.92
    0.72    5807   1.722   0.697    9.16
    0.70    5646   1.771   0.723    9.41
    0.68    5485   1.823   0.752    9.68
    0.66    5323   1.878   0.782    9.97
    0.64    5162   1.937   0.815    10.3
    0.62    5001   2.000   0.850    10.6
    0.60    4839   2.066   0.890    11.0
    0.58    4678   2.138   0.933    11.3
    0.56    4517   2.214   0.980    11.8
    0.54    4355   2.296    1.03    12.2
    0.52    4194   2.384    1.09    12.7
    0.50    4033   2.480    1.15    13.2
    0.48    3872   2.583    1.22    13.7
    0.46    3710   2.695    1.29    14.4
    0.44    3549   2.818    1.37    15.0
    0.42    3388   2.952    1.47    15.7
    0.40    3226   3.100    1.59    16.5
    0.38    3065   3.263    1.73    17.4
    0.36    2904   3.444    1.90    18.4
    0.34    2742   3.646    2.09    19.6
    0.32    2581   3.874    2.32    20.8
    0.30    2420   4.133    2.59    22.2
    0.28    2258   4.428    2.92    23.7
    0.26    2097   4.768    3.32    25.4
    0.24    1936   5.166    3.81    27.5
    0.22    1774   5.635    4.44    30.0
    0.20    1613   6.199    5.23    33.0
    0.18    1452   6.888    6.23    36.3
    0.16    1291   7.749    7.66    40.3
    0.15    1210   8.265    8.57    42.6
    0.14    1129   8.856    9.64    45.1
    0.13    1049   9.537    10.8    47.5
