;UO 
;UO Fe.ASC: Values of n and k for polycrystalline iron from various
;UO references in HOCII (pg. 389). References are 3, 4, 12, 13, 18. 
;UO 
;UO From HANDBOOK OF OPTICAL CONSTANTS IN SOLIDS II edited by Edward D.
;UO Palik. Copyright (c) 1991 by Academic Press, Inc. Reproduced by
;UO permission of the publisher.
;UO --------------------------------------------------------------
;UO    eV         cm-1       um          n               k 
;UO --------------------------------------------------------------
;N  5
;L  Energy[eV]  Wavelength[cm-1]  Wavelength[um]  n  k  
  10000. 80655000. 0.0001240 0.9999849 1.32E-06
   9549. 77017000. 0.0001298 0.9999834 1.57E-06
   9117. 73533000. 0.0001360 0.9999819 1.86E-06
   8706. 70218000. 0.0001424 0.9999803 2.19E-06
   8313. 67048000. 0.0001492 0.9999787 2.59E-06
   7937. 64016000. 0.0001562 0.9999771 3.04E-06
   7579. 61128000. 0.0001636 0.9999755 3.58E-06
   7406. 59733000. 0.0001674 0.9999750 3.88E-06
   7237. 58370000. 0.0001713 0.9999750 4.20E-06
   7071. 57031000. 0.0001753 0.9999753 5.70E-07
   6910. 55732000. 0.0001794 0.9999721 6.21E-07
   6752. 54458000. 0.0001836 0.9999701 6.77E-07
   6598. 53216000. 0.0001879 0.9999682 7.38E-07
   6300. 50813000. 0.0001968 0.9999645 8.77E-07
   6015. 48514000. 0.0002061 0.9999607 1.04E-06
   5744. 46328000. 0.0002159 0.9999565 1.24E-06
   5484. 44231000. 0.0002261 0.9999520 1.47E-06
   5237. 42239000. 0.0002368 0.9999471 1.75E-06
   5000. 40327000. 0.0002480 0.9999416 2.08E-06
   4775. 38513000. 0.0002597 0.9999357 2.48E-06
   4559. 36771000. 0.0002720 0.9999293 2.94E-06
   4353. 35109000. 0.0002848 0.9999222 3.50E-06
   4157. 33528000. 0.0002983 0.9999144 4.16E-06
   3969. 32012000. 0.0003124 0.9999058 4.95E-06
   3790. 30568000. 0.0003272 0.999896 5.88E-06
   3619. 29189000. 0.0003426 0.999886 6.99E-06
   3455. 27866000. 0.0003588 0.999875 8.30E-06
   3299. 26608000. 0.0003758 0.999862 9.86E-06
   3150. 25406000. 0.0003936 0.999848 1.17E-05
   3008. 24261000. 0.0004122 0.999834 1.39E-05
   2872. 23164000. 0.0004317 0.999817 1.65E-05
   2742. 22116000. 0.0004521 0.999799 1.96E-05
   2619. 21123000. 0.0004735 0.999779 2.32E-05
   2500. 20164000. 0.0004959 0.999757 2.76E-05
   2387. 19252000. 0.0005193 0.999733 3.27E-05
   2280. 18389000. 0.0005439 0.999707 3.87E-05
   2177. 17559000. 0.0005696 0.999679 4.58E-05
   2078. 16760000. 0.0005965 0.999647 5.42E-05
   1985. 16010000. 0.0006248 0.999614 6.41E-05
   1895. 15284000. 0.0006543 0.999576 7.57E-05
   1809. 14590000. 0.0006852 0.999536 8.94E-05
   1728. 13937000. 0.0007176 0.999492 1.06E-04
   1650. 13308000. 0.0007516 0.999445 1.24E-04
   1575. 12703000. 0.0007871 0.999393 1.46E-04
   1504. 12130000. 0.0008244 0.999337 1.72E-04
   1436. 11582000. 0.0008633 0.999278 2.03E-04
   1371. 11058000. 0.0009041 0.999214 2.38E-04
   1309. 10558000. 0.0009469 0.999146 2.79E-04
   1250. 10082000. 0.0009917 0.999075 3.28E-04
   1194. 9630200. 0.001039 0.99900 3.84E-04
   1140. 9194600. 0.001088 0.99892 4.49E-04
   1088. 8775200. 0.001139 0.99884 5.26E-04
   1039. 8380000. 0.001193 0.99876 6.15E-04
   992.3 8003400. 0.001249 0.99869 7.19E-04
   947.5 7642000. 0.001309 0.99862 8.38E-04
   904.7 7296800. 0.001370 0.99857 9.80E-04
   884.1 7130700. 0.001402 0.99856 1.06E-03
   863.9 6967800. 0.001435 0.99858 1.15E-03
   844.2 6808900. 0.001469 0.99863 1.10E-03
   824.9 6653200. 0.001503 0.99857 1.19E-03
   806.0 6500800. 0.001538 0.99856 1.28E-03
   787.7 6353200. 0.001574 0.99858 1.38E-03
   769.7 6208000. 0.001611 0.99864 1.50E-03
   752.1 6066000. 0.001649 0.99875 1.62E-03
   734.9 5927300. 0.001687 0.99897 1.75E-03
   718.1 5791800. 0.001727 0.99958 1.89E-03
   701.7 5659500. 0.001767 0.99976 2.40E-04
   685.7 5530500. 0.001808 0.99910 2.57E-04
   670.0 5403900. 0.001851 0.99876 2.76E-04
   654.7 5280500. 0.001894 0.99851 2.98E-04
   639.8 5160300. 0.001938 0.99831 3.22E-04
   610.9 4927200. 0.002030 0.99794 3.71E-04
   583.3 4704600. 0.002126 0.99759 4.29E-04
   557.0 4492500. 0.002226 0.99724 4.99E-04
   531.8 4289200. 0.002331 0.99687 5.80E-04
   507.8 4095700. 0.002442 0.99649 6.75E-04
   484.9 3911000. 0.002557 0.99608 7.85E-04
   463.0 3734300. 0.002678 0.99564 9.13E-04
   442.1 3565700. 0.002805 0.99517 1.06E-03
   422.1 3404400. 0.002937 0.99465 1.23E-03
   403.0 3250400. 0.003076 0.99411 1.43E-03
   384.8 3103600. 0.003222 0.99351 1.65E-03
   367.5 2964100. 0.003374 0.99286 1.93E-03
   350.9 2830200. 0.003534 0.99218 2.25E-03
   335.0 2701900. 0.003701 0.99147 2.63E-03
   319.9 2580100. 0.003876 0.99072 3.01E-03
   305.5 2464000. 0.004059  0.9899 3.44E-03
   291.7 2352700. 0.004251  0.9890 3.94E-03
   278.5 2246200. 0.004452  0.9881 4.51E-03
   265.9 2144600. 0.004663  0.9872 5.07E-03
   253.9 2047800. 0.004883  0.9862 5.68E-03
   242.5 1955900. 0.005114  0.9850 6.35E-03
   231.5 1867200. 0.005356  0.9838 7.11E-03
   221.1 1783300. 0.005609  0.9823 8.00E-03
   211.1 1702600. 0.005874  0.9809 9.09E-03
   201.5 1625200. 0.006152  0.9794 1.03E-02
   192.4 1551800. 0.006443  0.9779 1.18E-02
   183.7 1481600. 0.006748  0.9765 1.31E-02
   175.5 1415500. 0.007067  0.9749 1.45E-02
   167.5 1351000. 0.007401  0.9732 1.61E-02
   160.0 1290500. 0.007751  0.9713 1.78E-02
   152.7 1231600. 0.008117  0.9694 1.97E-02
   145.8 1175900. 0.008501  0.9674 2.18E-02
   139.3 1123500. 0.008903  0.9653 2.40E-02
   133.0 1072700. 0.009324  0.9631 2.64E-02
   127.0 1024300. 0.009766  0.9609 2.91E-02
   121.2 977540. 0.01023  0.9587 3.17E-02
   115.8 933980. 0.01071  0.9561 3.45E-02
   110.5 891240. 0.01122  0.9534 3.75E-02
   105.5 850910. 0.01175  0.9505 4.08E-02
   100.8 813000. 0.01230  0.9474 4.43E-02
   98.47 794210. 0.01259  0.9457 4.61E-02
   96.22 776060. 0.01289  0.9440 4.81E-02
   94.03 758400. 0.01319  0.9422 5.01E-02
   91.88 741060. 0.01349  0.9403 5.22E-02
   89.78 724120. 0.01381  0.9383 5.44E-02
   87.73 707580. 0.01413  0.9363 5.67E-02
   85.73 691450. 0.01446  0.9341 5.92E-02
   81.85 660160. 0.01515  0.9295 6.44E-02
   78.16 630400. 0.01586  0.9243 7.02E-02
   74.63 601930. 0.01661  0.9172 7.70E-02
   71.26 574750. 0.01740  0.9102 8.77E-02
   68.04 548780. 0.01822  0.9034   0.100
   64.97 524010. 0.01908  0.8969   0.121
   62.04 500380. 0.01999  0.9013   0.149
   59.24 477800. 0.02093  0.9252   0.179
   56.56 456180. 0.02192  0.9751   0.191
   55.27 445780. 0.02243   1.012   0.185
   54.01 435620. 0.02296   1.109   0.175
   52.77 425620. 0.02349   1.004 5.36E-02
   51.57 415940. 0.02404  0.9695 5.44E-02
    250. 2016400. 0.004959 -0.0001 5.0E-03
    200. 1613100. 0.006199 -0.0001 1.0E-02
    150. 1209800. 0.008266 -0.0001 2.3E-02
    120. 967860. 0.01033 -0.0001 3.8E-02
    115. 927530. 0.01078 -0.0001 4.1E-02
    110. 887200. 0.01127 -0.0001 4.5E-02
    105. 846880. 0.01181 -0.0001 5.0E-02
    100. 806550. 0.01240 -0.0001 5.4E-02
    95.0 766220. 0.01305 -0.0001 6.0E-02
    90.0 725890. 0.01378 -0.0001 6.5E-02
    85.0 685570. 0.01459 -0.0001 7.0E-02
    80.0 645240. 0.01550 -0.0001 7.6E-02
    75.0 604910. 0.01653 -0.0001 8.4E-02
    70.0 564580. 0.01771 -0.0001 9.4E-02
    65.0 524260. 0.01907 -0.0001   0.108
    60.0 483930. 0.02066 -0.0001   0.130
    56.0 451670. 0.02214 -0.0001   0.176
    52.0 419400. 0.02384 -0.0001 6.0E-02
    50.0 403270. 0.02480 -0.0001 6.5E-02
    45.0 362950. 0.02755 -0.0001 9.2E-02
    40.0 322620. 0.03100 -0.0001   0.118
    26.0 209800. 0.04769   0.890   0.376
    25.8 208090. 0.04806   0.887   0.383
    25.6 206480. 0.04843   0.886   0.395
    25.4 204860. 0.04881   0.884   0.402
    25.2 203250. 0.04920   0.881   0.408
    25.0 201640. 0.04959   0.877   0.411
    24.8 200020. 0.04999   0.874   0.418
    24.6 198410. 0.05040   0.876   0.434
    24.4 196800. 0.05081   0.872   0.436
    24.2 195180. 0.05123   0.870   0.443
    24.0 193570. 0.05166   0.867   0.450
    23.8 191960. 0.05209   0.865   0.468
    23.6 190350. 0.05254   0.859   0.477
    23.4 188730. 0.05298   0.861   0.482
    23.2 187120. 0.05344   0.862   0.493
    23.0 185510. 0.05391   0.863   0.504
    22.8 183890. 0.05438   0.861   0.511
    22.6 182280. 0.05486   0.863   0.515
    22.4 180670. 0.05535   0.862   0.522
    22.2 179050. 0.05585   0.865   0.537
    22.0 177440. 0.05636   0.872   0.556
    21.8 175830. 0.05687   0.874   0.561
    21.6 174210. 0.05740   0.875   0.571
    21.4 172600. 0.05794   0.875   0.571
    21.2 170990. 0.05848   0.878   0.575
    21.0 169380. 0.05904   0.882   0.590
    20.8 167760. 0.05961   0.892   0.605
    20.6 166150. 0.06019   0.898   0.613
    20.4 164540. 0.06078   0.903   0.620
    20.2 162920. 0.06138   0.905   0.624
    20.0 161310. 0.06199   0.910   0.632
    19.8 159700. 0.06262   0.919   0.636
    19.6 158080. 0.06326   0.924   0.644
    19.4 156470. 0.06391   0.927   0.647
    19.2 154860. 0.06458   0.933   0.648
    19.0 153240. 0.06525   0.936   0.652
    18.8 151630. 0.06595   0.938   0.656
    18.6 150020. 0.06666   0.938   0.656
    18.4 148400. 0.06738   0.941   0.659
    18.2 146790. 0.06812   0.941   0.659
    18.0 145180. 0.06888   0.939   0.665
    17.8 143570. 0.06965   0.944   0.672
    17.6 141950. 0.07045   0.946   0.682
    17.4 140340. 0.07126   0.945   0.688
    17.2 138730. 0.07208   0.947   0.697
    17.0 137110. 0.07293   0.948   0.707
    16.8 135500. 0.07380   0.952   0.719
    16.6 133890. 0.07469   0.955   0.723
    16.4 132270. 0.07560   0.951   0.731
    16.2 130660. 0.07653   0.944   0.742
    16.0 129050. 0.07749   0.940   0.750
    15.8 127430. 0.07847   0.941   0.765
    15.6 125820. 0.07948   0.943   0.774
    15.4 124210. 0.08051   0.945   0.783
    15.2 122600. 0.08157   0.949   0.791
    15.0 120980. 0.08266   0.952   0.798
    14.8 119370. 0.08377   0.959   0.824
    14.6 117760. 0.08492   0.974   0.847
    14.4 116140. 0.08610   0.988   0.870
    14.2 114530. 0.08731   0.993   0.881
    14.0 112920. 0.08856    1.00   0.889
    13.8 111300. 0.08984    1.00   0.898
    13.6 109690. 0.09116    1.01   0.911
    13.4 108080. 0.09253    1.02   0.925
    13.2 106460. 0.09393    1.03   0.935
    13.0 104850. 0.09537    1.05   0.951
    12.8 103240. 0.09686    1.06   0.964
    12.6 101630. 0.09840    1.08   0.972
    12.4 100010. 0.09999    1.09   0.968
    12.2  98399.  0.1016    1.10   0.971
    12.0  96786.  0.1033    1.10   0.969
    11.8  95173.  0.1051    1.11   0.967
    11.6  93560.  0.1069    1.12   0.968
    11.4  91946.  0.1088    1.11   0.958
    11.2  90333.  0.1107    1.11   0.953
    11.0  88720.  0.1127    1.11   0.950
    10.8  87107.  0.1148    1.10   0.959
    10.6  85494.  0.1170    1.07   0.991
    10.4  83881.  0.1192    1.07    1.02
    10.2  82268.  0.1216    1.06    1.06
    10.0  80655.  0.1240    1.05    1.09
    9.80  79042.  0.1265    1.08    1.13
    9.60  77429.  0.1292    1.09    1.15
    9.40  75816.  0.1319    1.10    1.17
    9.20  74202.  0.1348    1.12    1.19
    9.00  72589.  0.1378    1.12    1.20
    8.80  70976.  0.1409    1.13    1.22
    8.60  69363.  0.1442    1.13    1.24
    8.40  67750.  0.1476    1.13    1.26
    8.20  66137.  0.1512    1.13    1.28
    8.00  64524.  0.1550    1.13    1.32
    7.80  62911.  0.1590    1.15    1.32
    7.60  61298.  0.1631    1.15    1.37
    7.40  59684.  0.1675    1.15    1.40
    7.20  58071.  0.1722    1.13    1.45
    7.00  56458.  0.1771    1.15    1.49
    6.80  54845.  0.1823    1.20    1.54
    6.60  53232.  0.1879    1.22    1.61
    6.40  51619.  0.1937    1.23    1.67
    6.20  50006.  0.2000    1.28    1.71
    6.00  48393.  0.2066    1.30    1.73
    5.80  46780.  0.2138    1.32    1.75
    5.60  45167.  0.2214    1.32    1.78
    5.40  43554.  0.2296    1.31    1.82
    5.20  41940.  0.2384    1.32    1.88
    5.00  40327.  0.2480    1.31    1.95
   1.240  10000.   1.000    3.23    4.35
   1.116   9000.   1.111    3.32    4.65
  0.9919   8000.   1.250    3.42    5.04
  0.8679   7000.   1.429    3.53    5.54
  0.7439   6000.   1.667    3.67    6.21
  0.6199   5000.   2.000    3.84    7.16
  0.5889   4750.   2.105    3.92    7.50
  0.5579   4500.   2.222    3.98    7.80
  0.5269   4250.   2.353    4.04    8.18
  0.4959   4000.   2.500    4.13    8.59
  0.4649   3750.   2.667    4.22    9.02
  0.4339   3500.   2.857    4.30    9.55
  0.4030   3250.   3.077    4.39    10.1
  0.3720   3000.   3.333    4.45    10.8
  0.3410   2750.   3.636    4.51    11.6
  0.3100   2500.   4.000    4.54    12.6
  0.2790   2250.   4.444    4.59    13.8
  0.2480   2000.   5.000    4.59    15.4
  0.2356   1900.   5.263    4.60    16.2
  0.2232   1800.   5.555    4.63    17.1
  0.2108   1700.   5.882    4.66    18.1
  0.1984   1600.   6.250    4.96    19.2
  0.1860   1500.   6.667    4.75    20.5
  0.1736   1400.   7.143    4.89    22.0
  0.1612   1300.   7.692    5.10    23.7
  0.1488   1200.   8.333    5.37    25.6
  0.1364   1100.   9.091    5.59    27.8
  0.1240   1000.   10.00    5.81    30.4
  0.1178    950.   10.53    5.95    32.0
  0.1116    900.   11.11    6.12    33.7
  0.1054    850.   11.76    6.31    35.7
 0.09919    800.   12.50    6.48    37.7
 0.09299    750.   13.33    6.88    40.3
 0.08679    700.   14.29    7.30    43.2
 0.08059    650.   15.38    7.71    46.5
 0.07439    600.   16.67    8.38    50.3
 0.06819    550.   18.18    9.04    54.7
 0.06199    500.   20.00    9.87    60.1
 0.05951    480.   20.83    10.3    62.6
 0.05703    460.   21.74    10.7    65.4
 0.05455    440.   22.73    11.3    68.6
 0.05207    420.   23.81    12.0    71.9
 0.04959    400.   25.00    13.0    75.7
 0.04711    380.   26.32    14.2    79.8
 0.04463    360.   27.78    15.7    84.5
 0.04215    340.   29.41    17.7    89.3
 0.03968    320.   31.25    19.9     94.
 0.03720    300.   33.33    22.5    100.
 0.03472    280.   35.71    25.2    106.
 0.03224    260.   38.46    29.1    114.
 0.02976    240.   41.67    33.6    122.
 0.02728    220.   45.45    38.6    130.
 0.02480    200.   50.00    45.7    141.
 0.02480    200.   50.00    43.2    115.
 0.02232    180.   55.55    54.2    152.
 0.02170    175.   57.14    51.2    126.
 0.01860    150.   66.67    61.3    140.
 0.01550    125.   80.00    75.2    158.
 0.01240    100.   100.0    95.4    182.
 0.009919     80.   125.0    120.    207.
 0.008059     65.   153.8    147.    230.
 0.006199     50.   200.0    183.    260.
 0.004339     35.   285.7    238.    306.
