;UO 
;UO GaAs.ASC: Values of n and k for cubic gallium arsenide from
;UO various references in HOCI (pg. 434).  References are 1, 2,
;UO 3, 4, 5, 6, 7, 8, 9, 10, 12, 19. 
;UO 
;UO From HANDBOOK OF OPTICAL CONSTANTS IN SOLIDS edited by Edward D.
;UO Palik. Copyright (c) 1985 by Academic Press, Inc. Reproduced by
;UO permission of the publisher.
;UO -----------------------------------------------------------
;UO      eV       cm-1      um          n          k 
;UO -----------------------------------------------------------	
;N  5
;L  Energy[eV]  Wavelength[cm-1]  Wavelength[um]  n  k  
     155 1250200 0.007999 -0.0001  0.0181
     150 1209800 0.008266 -0.0001  0.0193
     145 1169500 0.008551 -0.0001  0.0203
     144 1161400 0.008610 -0.0001  0.0204
     143 1153400 0.008670 -0.0001  0.0206
     142 1145300 0.008731 -0.0001  0.0204
     141 1137200 0.008793 -0.0001  0.0205
     140 1129200 0.008856 -0.0001  0.0206
     135 1088800 0.009184 -0.0001  0.0213
     130 1048500 0.009537 -0.0001  0.0224
     125 1008200 0.009919 -0.0001  0.0234
     120  967860 0.01033 -0.0001  0.0245
     115  927530 0.01078 -0.0001  0.0256
     113  911400 0.01097 -0.0001  0.0263
     111  895270 0.01117 -0.0001  0.0274
     110  887210 0.01127 -0.0001  0.0278
     109  879140 0.01137 -0.0001  0.0281
     108  871070 0.01148 -0.0001  0.0283
     107  863010 0.01159 -0.0001  0.0276
     106  854940 0.01170 -0.0001  0.0288
     105  846880 0.01181 -0.0001  0.0293
     104  838810 0.01192 -0.0001  0.0284
     103  830750 0.01204 -0.0001  0.0294
     102  822680 0.01215 -0.0001  0.0289
     100  806550 0.01240 -0.0001  0.0294
      95  766220 0.01305 -0.0001  0.0308
      90  725900 0.01378 -0.0001  0.0323
      85  685570 0.01459 -0.0001  0.0338
      80  645240 0.01550 -0.0001  0.0353
      75  604910 0.01653 -0.0001  0.0368
      70  564590 0.01771 -0.0001  0.0376
      65  524260 0.01907 -0.0001  0.0387
      60  483930 0.02066 -0.0001  0.0389
      55  443600 0.02254 -0.0001  0.0407
      50  403280 0.02480 -0.0001  0.0430
      48  387140 0.02583 -0.0001  0.0448
      46  371010 0.02695 -0.0001  0.0476
      44  354880 0.02818 -0.0001  0.0518
      43  346820 0.02883 -0.0001  0.0546
      42  338750 0.02952 -0.0001  0.0470
      41  330690 0.03024 -0.0001  0.0426
      40  322620 0.03100 -0.0001  0.0426
      38  306490 0.03263 -0.0001  0.0452
      35  282290 0.03542 -0.0001  0.0513
      30  241970 0.04133 -0.0001  0.0648
      29  233900 0.04275 -0.0001  0.0683
      28  225830 0.04428 -0.0001  0.0740
      27  217770 0.04592 -0.0001  0.0785
      26  209700 0.04769 -0.0001  0.0872
      25  201640 0.04959 -0.0001  0.0986
      24  193570 0.05166 -0.0001   0.115
    23.5  189540 0.05276 -0.0001   0.126
      23  185510 0.05391   1.037   0.141
      23  185510 0.05391 -0.0001   0.228
    22.5  181470 0.05510 -0.0001   0.146
      22  177440 0.05636   1.043   0.148
      22  177440 0.05636 -0.0001   0.243
    21.5  173410 0.05767 -0.0001   0.147
      21  169380 0.05904   1.058   0.162
      21  169380 0.05904 -0.0001   0.245
    20.5  165340 0.06048 -0.0001   0.164
      20  161310 0.06199   1.025   0.144
      20  161310 0.06199 -0.0001   0.212
    19.5  157280 0.06358 -0.0001   0.147
      19  153240 0.06526   0.981   0.152
      19  153240 0.06526 -0.0001   0.234
      18  145180 0.06888   0.936   0.178
      18  145180 0.06888 -0.0001   0.267
      17  137110 0.07293   0.889   0.223
      17  137110 0.07293 -0.0001   0.324
      16  129050 0.07749   0.850   0.261
      16  129050 0.07749 -0.0001   0.411
      15  120980 0.08266   0.836   0.282
      15  120980 0.08266 -0.0001   0.503
      14  112920 0.08856   0.840   0.602
      13  104850 0.09537   0.864   0.709
    12.0   96790  0.1033   0.895   0.791
    10.8   87110  0.1148   0.923   0.881
    10.0   80655  0.1240   0.913   0.974
     9.0   72590  0.1378   0.901   1.136
     8.0   64520  0.1550   0.899   1.435
     7.0   56460  0.1771   1.063   1.838
     6.6   53320  0.1879   1.247   2.047
     6.3   50810  0.1968   1.441   1.988
     6.2   50010  0.2000   1.424   1.976
     6.0   48390  0.2066   1.264   2.472
     6.0   48390  0.2066   1.395   2.048
    5.94   47910  0.2087   1.287   2.523
    5.90   47590  0.2101   1.288   2.556
    5.84   47100  0.2123   1.304   2.592
    5.80   46780  0.2138   1.311   2.625
    5.74   46300  0.2160   1.321   2.673
    5.70   45970  0.2175   1.325   2.710
    5.64   45490  0.2198   1.339   2.772
    5.60   45170  0.2214   1.349   2.815
    5.54   44680  0.2238   1.367   2.885
    5.50   44360  0.2254   1.383   2.936
    5.44   43880  0.2279   1.410   3.019
    5.40   43550  0.2296   1.430   3.079
    5.34   43070  0.2322   1.468   3.181
    5.30   42750  0.2339   1.499   3.255
    5.24   42260  0.2366   1.552   3.384
    5.20   41940  0.2384   1.599   3.484
    5.14   41460  0.2412   1.699   3.660
    5.10   41130  0.2431   1.802   3.795
    5.04   40650  0.2460   2.044   3.992
    5.00   40330  0.2480   2.273   4.084
    4.94   39840  0.2510   2.654   4.106
    4.90   39520  0.2530   2.890   4.047
    4.84   39040  0.2562   3.187   3.898
    4.80   38710  0.2583   3.342   3.770
    4.74   38230  0.2616   3.511   3.574
    4.70   37910  0.2638   3.598   3.452
    4.64   37420  0.2672   3.708   3.280
    4.60   37100  0.2695   3.769   3.169
    4.54   36620  0.2731   3.850   3.018
    4.50   36290  0.2755   3.913   2.919
    4.44   35810  0.2792   4.004   2.715
    4.40   35490  0.2818   4.015   2.563
    4.34   35000  0.2857   3.981   2.368
    4.30   34680  0.2883   3.939   2.260
    4.24   34200  0.2924   3.864   2.132
    4.20   33880  0.2952   3.810   2.069
    4.14   33390  0.2995   3.736   2.001
    4.10   33070  0.3024   3.692   1.969
    4.04   32580  0.3069   3.634   1.935
    4.00   32260  0.3100   3.601   1.920
    3.94   31780  0.3147   3.559   1.907
    3.90   31460  0.3179   3.538   1.904
    3.84   30970  0.3229   3.512   1.905
    3.80   30650  0.3263   3.501   1.909
    3.74   30160  0.3315   3.488   1.920
    3.70   29840  0.3351   3.485   1.931
    3.64   29360  0.3406   3.489   1.950
    3.60   29040  0.3444   3.495   1.965
    3.54   28550  0.3502   3.513   1.992
    3.50   28230  0.3542   3.531   2.013
    3.48   28070  0.3563   3.541   2.024
    3.46   27910  0.3583   3.553   2.036
    3.44   27750  0.3604   3.566   2.049
    3.42   27580  0.3625   3.580   2.062
    3.40   27420  0.3647   3.596   2.076
    3.38   27260  0.3668   3.614   2.091
    3.36   27100  0.3690   3.635   2.107
    3.34   26940  0.3712   3.657   2.123
    3.32   26780  0.3734   3.681   2.142
    3.30   26620  0.3757   3.709   2.162
    3.28   26450  0.3780   3.740   2.183
    3.26   26290  0.3803   3.776   2.207
    3.24   26130  0.3827   3.818   2.232
    3.22   25970  0.3850   3.871   2.260
    3.20   25810  0.3875   3.938   2.288
    3.18   25650  0.3899   4.023   2.307
    3.16   25490  0.3924   4.126   2.304
    3.14   25330  0.3949   4.229   2.270
    3.12   25160  0.3974   4.313   2.212
    3.10   25000  0.4000   4.373   2.146
    3.08   24840  0.4025   4.413   2.082
    3.06   24680  0.4052   4.439   2.029
    3.04   24520  0.4078   4.462   1.988
    3.02   24360  0.4105   4.483   1.961
    3.00   24200  0.4133   4.509   1.948
    2.98   24040  0.4161   4.550   1.952
    2.96   23870  0.4189   4.626   1.967
    2.94   23710  0.4217   4.755   1.960
    2.92   23550  0.4246   4.917   1.885
    2.90   23390  0.4275   5.052   1.721
    2.88   23230  0.4305   5.107   1.529
    2.86   23070  0.4335   5.102   1.353
    2.84   22910  0.4366   5.065   1.206
    2.82   22740  0.4397   5.015   1.088
    2.80   22580  0.4428   4.959   0.991
    2.78   22420  0.4460   4.902   0.912
    2.76   22260  0.4492   4.845   0.846
    2.74   22100  0.4525   4.793   0.789
    2.72   21940  0.4558   4.741   0.739
    2.70   21780  0.4592   4.694   0.696
    2.68   21660  0.4626   4.649   0.659
    2.66   21450  0.4661   4.605   0.626
    2.64   21290  0.4696   4.567   0.595
    2.62   21130  0.4732   4.525   0.569
    2.60   20970  0.4769   4.492   0.539
    2.58   20810  0.4806   4.456   0.517
    2.56   20650  0.4843   4.423   0.497
    2.54   20490  0.4881   4.392   0.476
    2.52   20330  0.4920   4.362   0.458
    2.50   20160  0.4959   4.333   0.441
    2.48   20000  0.4999   4.305   0.426
    2.46   19840  0.5040   4.279   0.411
    2.44   19680  0.5081   4.254   0.398
    2.42   19520  0.5123   4.229   0.385
    2.40   19360  0.5166   4.205   0.371
    2.38   19200  0.5209   4.183   0.359
    2.36   19030  0.5254   4.162   0.347
    2.34   18870  0.5299   4.141   0.337
    2.32   18710  0.5344   4.120   0.327
    2.30   18550  0.5391   4.100   0.320
    2.28   18390  0.5438   4.082   0.308
    2.26   18230  0.5486   4.063   0.301
    2.24   18070  0.5535   4.045   0.294
    2.22   17910  0.5585   4.029   0.285
    2.20   17740  0.5636   4.013   0.276
    2.18   17580  0.5687   3.998   0.266
    2.16   17420  0.5740   3.983   0.257
    2.14   17260  0.5794   3.968   0.251
    2.12   17100  0.5848   3.954   0.245
    2.10   16940  0.5904   3.940   0.240
    2.08   16780  0.5961   3.927   0.232
    2.06   16610  0.6019   3.914   0.228
    2.04   16450  0.6078   3.902   0.223
    2.02   16290  0.6138   3.890   0.213
    2.00   16130  0.6199   3.878   0.211
    1.98   15970  0.6262   3.867   0.203
    1.96   15810  0.6326   3.856   0.196
    1.94   15650  0.6391   3.846   0.187
    1.92   15490  0.6458   3.836   0.183
    1.90   15320  0.6526   3.826   0.179
    1.88   15160  0.6595   3.817   0.173
    1.86   15000  0.6666   3.809   0.173
    1.84   14840  0.6738   3.799   0.168
    1.82   14680  0.6812   3.792   0.158
    1.80   14520  6.8888   3.785   0.151
    1.78   14360  0.6965   3.779   0.152
    1.76   14200  0.7045   3.772   0.134
    1.74   14030  0.7126   3.762   0.127
    1.72   13870  0.7208   3.752   0.118
    1.70   13710  0.7293   3.742   0.112
    1.68   13550  0.7380   3.734   0.105
    1.66   13390  0.7469   3.725   0.101
    1.64   13230  0.7560   3.716   0.097
    1.62   13070  0.7653   3.707   0.093
    1.60   12900  0.7749   3.700   0.091
    1.58   12740  0.7847   3.693   0.089
    1.56   12580  0.7948   3.685   0.087
    1.54   12420  0.8051   3.679   0.085
    1.52   12260  0.8157   3.672   0.083
    1.50   12100  0.8266   3.666   0.080
    1.50   12100  0.8266 -0.0001 7.89E-2
    1.49   12020  0.8321 -0.0001 7.28E-2
    1.48   11940  0.8377 -0.0001 6.86E-2
    1.47   11860  0.8434 -0.0001 6.64E-2
    1.46   11780  0.8492 -0.0001 6.28E-2
    1.45   11690  0.8551 -0.0001 6.12E-2
    1.44   11610  0.8610 -0.0001 5.68E-2
   1.435   11570  0.8640 -0.0001 5.57E-2
    1.43   11530  0.8670 -0.0001 5.72E-2
   1.425   11490  0.8700 -0.0001 5.54E-2
    1.42   11450  0.8731 -0.0001 2.71E-2
    1.41   11370  0.8793 -0.0001 5.95E-3
    1.40   11290  0.8856  3.6140 1.69E-3
    1.39   11210  0.8920 -0.0001 5.68E-4
    1.38   11130  0.8984 -0.0001 2.50E-4
    1.37   11050  0.9050 -0.0001 1.33E-4
    1.35   10890  0.9184  3.5690 -0.0001
    1.30   10490  0.9537  3.5388 -0.0001
    1.25   10080  0.9919  3.5138 -0.0001
    1.20    9679   1.033  3.4920 -0.0001
    1.15    9275   1.078  3.4724 -0.0001
    1.10    8872   1.127  3.4546 -0.0001
    1.05    8469   1.181  3.4383 -0.0001
    1.00    8065   1.240  3.4232 -0.0001
    0.95    7662   1.305  3.4094 -0.0001
    0.90    7259   1.378  3.3965 -0.0001
    0.85    6856   1.459  3.3847 -0.0001
    0.80    6452   1.550  3.3737 -0.0001
    0.75    6049   1,653  3.3636 -0.0001
    0.70    5646   1.771  3.3543 -0.0001
    0.65    5243   1.907  3.3457 -0.0001
    0.60    4839   2.066  3.3378 -0.0001
    0.55    4436   2.254  3.3306 -0.0001
    0.50    4033   2.480  3.3240 -0.0001
    0.45    3629   2.755  3.3180 -0.0001
    0.40    3226   3.100  3.3125 -0.0001
    0.35    2823   3.542  3.3075 -0.0001
    0.30    2420   4.133  3.3027 -0.0001
    0.29    2339   4.275  3.3017 -0.0001
    0.28    2258   4.428  3.3008 -0.0001
    0.27    2178   4.592  3.2998 -0.0001
    0.26    2097   4.768  3.2988 -0.0001
    0.25    2016   4.959  3.2978 -0.0001
    0.24    1936   5.166  3.2968 -0.0001
    0.23    1855   5.391  3.2954 -0.0001
    0.22    1774   5.636  3.2946 -0.0001
    0.21    1694   5.904  3.2934 -0.0001
    0.20    1613   6.199  3.2921 -0.0001
    0.19    1532   6.526  3.2907 -0.0001
    0.18    1452   6.888  3.2891 -0.0001
    0.17    1371   7.293  3.2874 -0.0001
    0.16    1290   7.749  3.2854 -0.0001
    0.15    1210   8.266  3.2831 -0.0001
    0.14    1129   8.856  3.2803 -0.0001
  0.1347    1087     9.2 -0.0001  4.4E-7
    0.13    1048   9.537  3.2769 -0.0001
  0.1239    1042     9.6 -0.0001  6.1E-7
    0.12   967.9   10.33  3.2727 -0.0001
  0.1169   943.4    10.6 -0.0001  7.6E-7
    0.11   887.2   11.27  3.2671 -0.0001
   0.100   806.5   12.40  3.2597 4.93E-6
   0.098   790.4   12.65 -0.0001 1.61E-5
   0.096   774.3   12.91 -0.0001 3.49E-5
   0.095   766.2   13.05 -0.0001 3.63E-5
   0.094   758.2   13.19 -0.0001 2.72E-5
   0.092   742.0   13.48 -0.0001 1.61E-5
   0.090   725.9   13.78  3.2493 1.64E-5
   0.088   709.8   14.09 -0.0001 2.24E-5
   0.086   693.6   14.42 -0.0001 2.40E-5
   0.084   677.5   14.76 -0.0001 2.11E-5
   0.082   661.4   15.12 -0.0001 2.16E-5
   0.080   645.2   15.50  3.2336 2.83E-5
   0.078   629.1   15.90 -0.0001 4.55E-5
   0.076   613.0   16.31 -0.0001 7.66E-5
   0.074   596.8   16.75 -0.0001 9.46E-5
   0.073   588.8   16.98 -0.0001 1.00E-4
   0.072   580.7   17.22 -0.0001 1.50E-4
   0.071   572.6   17.46 -0.0001 2.05E-4
   0.070   564.6   17.71  3.2081 2.32E-4
   0.069   556.5   17.97 -0.0001 6.00E-4
   0.068   548.5   18.23 -0.0001 1.17E-3
   0.067   540.4   18.51 -0.0001 2.59E-3
   0.066   532.3   18.79 -0.0001 4.18E-3
  0.0655   528.3   18.93 -0.0001 6.10E-3
   0.065   524.3   19.07  3.1886 8.27E-3
  0.0645   520.2   19.22   3.205 6.27E-3
   0.064   516.2   19.37 -0.0001 4.85E-3
  0.0635   512.2   19.53 -0.0001 4.83E-3
   0.063   508.1   19.68 -0.0001 4.85E-3
  0.0625   504.1   19.84 -0.0001 4.23E-3
   0.062   500.1   20.00 -0.0001 4.17E-3
  0.0615   496.0   20.16 -0.0001 4.18E-3
   0.061   492.0   20.33 -0.0001 4.09E-3
   0.060   483.9   20.66  3.1609 3.45E-3
  0.0595   480.0   20.84   3.176 3.18E-3
   0.059   475.9   21.01 -0.0001 3.19E-3
   0.058   467.8   21.38 -0.0001 3.57E-3
   0.057   459.7   21.75   3.157 4.50E-3
  0.0565   455.7   21.94 -0.0001 4.78E-3
   0.056   451.7   22.14 -0.0001 4.84E-3
  0.0555   447.6   22.34 -0.0001 4.97E-3
   0.055   443.6   22.54 -0.0001 5.32E-3
   0.054   435.5   22.96   3.126 4.56E-3
   0.053   427.5   23.39 -0.0001 3.68E-3
  0.0525   423.4   23.62 -0.0001 3.38E-3
   0.052   419.4   23.84   3.100 3.43E-3
   0.051   411.3   24.31 -0.0001 3.71E-3
   0.050   403.3   24.80 -0.0001 2.74E-3
  0.0495   399.2   25.05   3.058 2.07E-3
   0.049   395.2   25.30 -0.0001 2.07E-3
  0.0485   391.2   25.56 -0.0001 2.17E-3
   0.048   387.1   25.83 -0.0001 2.10E-3
   0.047   379.1   26.38   2.997 2.33E-3
   0.046   371.0   26.95 -0.0001 2.91E-3
   0.045   362.9   27.55 -0.0001 3.94E-3
 0.04463     360   27.78   2.913 6.50E-3
   0.044   354.9   28.18 -0.0001 5.15E-3
 0.04339     350   28.57   2.851 8.40E-3
   0.043   346.8   28.83 -0.0001 8.95E-3
 0.04215     340   29.41   2.770 1.13E-2
 0.04092     330   30.30   2.659 1.59E-2
 0.03968     320   31.25   2.495 2.43E-2
 0.03906     315   31.75   2.380 3.14E-2
 0.03844     310   32.26   2.229 4.21E-2
 0.03782     305   32.79   2.020 6.02E-2
 0.03720     300   33.33   1.707 9.59E-2
 0.03707     299   33.44   1.623   0.107
 0.03695     298   33.56   1.529   0.122
 0.03682     297   33.67   1.422   0.141
 0.03670     296   33.78   1.298   0.166
 0.03658     295   33.90   1.151   0.201
 0.03645     294   34.01   0.975   0.257
 0.03633     293   34.13   0.761   0.357
 0.03620     292   34.25   0.536   0.552
 0.03608     291   34.36   0.391   0.826
 0.03596     290   34.48   0.323    1.09
 0.03583     289   34.60   0.291    1.34
 0.03571     288   34.72   0.275    1.57
 0.03558     287   34.84   0.267    1.79
 0.03546     286   34.96   0.266    2.01
 0.03534     285   35.09   0.270    2.23
 0.03521     284   35.21   0.278    2.46
 0.03509     283   35.33   0.290    2.69
 0.03496     282   35.46   0.307    2.94
 0.03484     281   35.59   0.329    3.20
 0.03472     280   35.71   0.358    3.48
 0.03459     279   35.84   0.395    3.79
 0.03447     278   35.97   0.443    4.14
 0.03434     277   36.10   0.506    4.52
 0.03422     276   36.23   0.592    4.97
 0.03409     275   36.36   0.713    5.49
 0.03397     274   36.50   0.890    6.12
 0.03385     273   36.63    1.17    6.91
 0.03372     272   36.76    1.64    7.94
 0.03360     271   36.90    2.56    9.32
 0.03348     270   37.04    4.66    11.0
 0.03341   269.5   37.10    6.63    11.6
 0.03335     269   37.17    9.30    11.3
 0.03329   268.5   37.24    11.6    9.37
 0.03323     268   37.31    12.4    6.74
 0.03317   267.5   37.38    12.0    4.66
 0.03310     267   37.45    11.3    3.30
 0.03304   266.5   37.52    10.6    2.43
 0.03298     266   37.59    9.90    1.87
 0.03286     265   37.74    8.87    1.20
 0.03273     264   37.88    8.12   0.844
 0.03261     263   38.02    7.55   0.629
 0.03248     262   38.17    7.11   0.489
 0.03236     261   38.31    6.76   0.393
 0.03224     260   38.46    6.47   0.323
 0.03162     255   39.22    5.57   0.153
 0.03100     250   40.00    5.08 9.02E-2
 0.02976     240   41.67    4.57 4.26E-2
 0.02852     230   43.48    4.30 2.49E-2
 0.02728     220   45.45    4.13 1.63E-2
 0.02604     210   47.62    4.02 1.15E-2
 0.02480     200   50.00    3.93 8.49E-3
 0.02480     200   50.00    3.87 -0.0001
 0.02356     190   52.63 -0.0001 1.09E-2
 0.02232     180   55.56 -0.0001 1.22E-2
 0.02108     170   58.82 -0.0001 1.25E-2
 0.02066   166.7      60 -0.0001    3.77
 0.02066   166.7      60 -0.0001    3.74
 0.01984     160   62.50 -0.0001 1.15E-2
 0.01860     150   66.67 -0.0001  6.4E-3
 0.01771   142.9      70 -0.0001    3.71
 0.01771   142.9      70 -0.0001    3.68
 0.01736     140   71.43 -0.0001  5.0E-3
 0.01612     130   76.92 -0.0001  4.4E-3
 0.01550     125      80 -0.0001   3.681
 0.01550     125      80 -0.0001    3.65
 0.01488     120   83.33 -0.0001  3.9E-3
 0.01378   111.1      90 -0.0001   3.662
 0.01378   111.1      90 -0.0001   3.635
 0.01364     110   90.91 -0.0001  3.6E-3
 0.01240     100     100   3.650  3.6E-3
 0.01240     100     100   3.625 2.78E-3
 0.01116      90   111.1 -0.0001  3.8E-3
 0.009919      80   125.0 -0.0001 -0.0001
 0.008679      70   142.9 -0.0001 -0.0001
 0.008266   66.67     150   3.623 -0.0001
 0.008266   66.67     150    3.62 -0.0001
 0.007439      60   166.7 -0.0001 -0.0001
 0.006199   50.00     200   3.615 -0.0001
 0.006199   50.00     200    3.61 -0.0001
 0.004959      40   250.0 -0.0001 -0.0001
 0.004133   33.33     300   3.611 -0.0001
 0.004133   33.33     300    3.60 -0.0001
 0.003720      30   333.3 -0.0001 -0.0001
 0.003100      25     400 -0.0001 -0.0001
 0.002480      20     500   3.607 -0.0001
 0.001860      15     667 -0.0001 -0.0001
 0.001240      10    1000   3.606 -0.0001
