;UO 
;UO GaSb.ASC: Values of n and k for cubic gallium antimonide from
;UO various references in HOCII (pg. 603).  References are 1, 6, 10. 
;UO 
;UO Copyright (c) 1995 the Optical Society of America.  Contains data
;UO from HANDBOOK OF OPTICAL CONSTANTS IN SOLIDS II edited by Edward D.
;UO Palik. Copyright (c) 1991 by Academic Press, Inc. Reproduced by
;UO permission of the publisher.
;UO ----------------------------------------------------------------
;UO  eV     cm-1    um        n         nc        k 
;UO ----------------------------------------------------------------
;N  6
;L  Energy[eV]  Wavelength[cm-1]  Wavelength[um]  n  nc  k  
    6.00   48387  0.2067   0.935 -0.0001   2.416
    5.90   47581  0.2102   0.985 -0.0001   2.444
    5.80   46774  0.2138   1.022 -0.0001   2.479
    5.70   45968  0.2175   1.062 -0.0001   2.535
    5.60   45161  0.2214   1.127 -0.0001   2.602
    5.50   44355  0.2255   1.212 -0.0001   2.645
    5.40   43548  0.2296   1.299 -0.0001   2.653
    5.30   42742  0.2340   1.345 -0.0001   2.638
    5.20   41935  0.2385   1.356 -0.0001   2.645
    5.10   41129  0.2431   1.358 -0.0001   2.685
    5.00   40323  0.2480   1.369 -0.0001   2.751
    4.90   39516  0.2531   1.387 -0.0001   2.829
    4.80   38710  0.2583   1.408 -0.0001   2.928
    4.70   37903  0.2638   1.444 -0.0001   3.055
    4.60   37097  0.2696   1.503 -0.0001   3.208
    4.50   36290  0.2756   1.586 -0.0001   3.392
    4.40   35484  0.2818   1.723 -0.0001   3.628
    4.30   34677  0.2884   1.989 -0.0001   3.923
    4.20   33871  0.2952   2.522 -0.0001   4.130
    4.10   33065  0.3024   3.100 -0.0001   3.976
    4.00   32258  0.3100   3.450 -0.0001   3.643
    3.90   31452  0.3179   3.620 -0.0001   3.323
    3.80   30645  0.3263   3.701 -0.0001   3.069
    3.70   29839  0.3351   3.748 -0.0001   2.862
    3.60   29032  0.3444   3.774 -0.0001   2.690
    3.50   28226  0.3543   3.785 -0.0001   2.545
    3.40   27419  0.3647   3.794 -0.0001   2.430
    3.30   26613  0.3758   3.808 -0.0001   2.319
    3.20   25806  0.3875   3.800 -0.0001   2.210
    3.10   25000  0.4000   3.766 -0.0001   2.134
    3.00   24194  0.4133   3.732 -0.0001   2.109
    2.90   23387  0.4276   3.728 -0.0001   2.121
    2.80   22581  0.4429   3.760 -0.0001   2.157
    2.70   21774  0.4593   3.836 -0.0001   2.211
    2.60   20968  0.4769   3.984 -0.0001   2.280
    2.50   20161  0.4960   4.312 -0.0001   2.285
    2.40   19355  0.5167   4.513 -0.0001   1.962
    2.30   18548  0.5391   4.492 -0.0001   1.789
    2.20   17742  0.5636   4.521 -0.0001   1.747
    2.10   16935  0.5905   4.705 -0.0001   1.803
   2.000   16129   0.620 -0.0001  5.2496   1.378
   1.938   15625   0.640 -0.0001  5.1058 -0.0001
   1.900   15323  0.6526 -0.0001 -0.0001   0.829
   1.879   15152   0.660 -0.0001  4.9812 -0.0001
   1.824   14706   0.680 -0.0001  4.8724 -0.0001
   1.800   14516  0.6889 -0.0001 -0.0001   0.611
   1.771   14286   0.700 -0.0001  4.7771 -0.0001
   1.722   13889   0.720 -0.0001  4.6929 -0.0001
   1.700   13710  0.7294 -0.0001 -0.0001   0.485
   1.676   13514   0.740 -0.0001  4.6184 -0.0001
   1.632   13158   0.760 -0.0001  4.5521 -0.0001
   1.600   12903  0.7750 -0.0001 -0.0001   0.416
   1.590   12821   0.780 -0.0001  4.4928 -0.0001
   1.550   12500   0.800 -0.0001  4.4396 -0.0001
   1.512   12195   0.820 -0.0001  4.3916 -0.0001
   1.500   12096  0.8267 -0.0001 -0.0001   0.344
   1.476   11905   0.840 -0.0001  4.3483 -0.0001
   1.442   11628   0.860 -0.0001  4.3090 -0.0001
   1.409   11364   0.880 -0.0001  4.2733 -0.0001
   1.378   11111   0.900 -0.0001  4.2406 -0.0001
   1.348   10870   0.920 -0.0001  4.2108 -0.0001
   1.319   10638   0.940 -0.0001  4.1834 -0.0001
   1.292   10417   0.960 -0.0001  4.1583 -0.0001
   1.265   10204   0.980 -0.0001  4.1351 -0.0001
   1.240   10000   1.000 -0.0001  4.1137 -0.0001
  0.8166  6585.5  1.5185 -0.0001 -0.0001 5.08E-2
  0.8145  6568.5  1.5224 -0.0001 -0.0001 4.85E-2
  0.8128  6554.8  1.5256 -0.0001 -0.0001 4.86E-2
  0.8120  6548.4  1.5271 -0.0001 -0.0001 5.10E-2
  0.8112  6541.9  1.5286 -0.0001 -0.0001 5.11E-2
  0.8109  6539.5  I.5292 -0.0001 -0.0001 5.35E-2
  0.8105  6536.3  1.5299 -0.0001 -0.0001 5.84E-2
  0.8100  6532.3  1.5309 -0.0001 -0.0001 6.33E-2
  0.8095  6528.2  1.5318 -0.0001 -0.0001 5.73E-2
  0.8094  6527.4  1.5320 -0.0001 -0.0001 4.88E-2
  0.8087  6521.8  1.5333 -0.0001 -0.0001  2.5E-2
  0.8085  6520.2  1.5337 -0.0001 -0.0001 1.35E-2
  0.8080  6516.1  1.5347 -0.0001 -0.0001 1.07E-2
  0.8075  6512.1  1.5356 -0.0001 -0.0001 9.65E-3
  0.8068  6506.5  1.5369 -0.0001 -0.0001 9.05E-3
  0.8061  6500.8  1.5383 -0.0001 -0.0001 9.06E-3
  0.8055  6496.0  1.5394 -0.0001 -0.0001 9.80E-3
  0.8053  6494.4  1.5398 -0.0001 -0.0001 1.10E-2
  0.8049  6491.1  1.5406 -0.0001 -0.0001 1.23E-2
  0.8045  6487.9  1.5413 -0.0001 -0.0001 1.03E-2
  0.8040  6483.9  1.5423 -0.0001 -0.0001 8.10E-3
  0.8036  6480.6  1.5431 -0.0001 -0.0001 5.16E-3
  0.8034  6479.0  1.5434 -0.0001 -0.0001 3.93E-3
  0.8030  6475.8  1.5442 -0.0001 -0.0001 2.70E-3
  0.8022  6469.4  1.5457 -0.0001 -0.0001 1.66E-3
  0.8016  6464.5  1.5469 -0.0001 -0.0001 1.23E-3
  0.8012  6461.3  1.5477 -0.0001 -0.0001 1.05E-3
  0.8005  6455.6  1.5490 -0.0001 -0.0001 8.63E-4
  0.7996  6448.4  1.5508 -0.0001 -0.0001 6.54E-4
  0.7990  6443.5  1.5519 -0.0001 -0.0001 5.31E-4
  0.7980  6435.5  1.5339 -0.0001 -0.0001 3.59E-4
  0.7970  6427.4  1.5558 -0.0001 -0.0001 3.10E-4
  0.7965  6423.4  1.5568 -0.0001 -0.0001 3.34E-4
  0.7964  6422.6  1.5570 -0.0001 -0.0001 4.09E-4
  0.7962  6421.0  1.5574 -0.0001 -0.0001 4.71E-4
  0.7958  6417.7  1.5582 -0.0001 -0.0001 4.96E-4
  0.7957  6416.9  1.5584 -0.0001 -0.0001 4.34E-4
  0.7954  6414.5  1.5590 -0.0001 -0.0001 2.73E-4
  0.7950  6411.3  1.5597 -0.0001 -0.0001 2.23E-4
  0.7946  6408.1  1.5605 -0.0001 -0.0001 1.74E-4
  0.7940  6403.2  1.5617 -0.0001 -0.0001 1.49E-4
  0.7932  6396.8  1.5633 -0.0001 -0.0001 1.49E-4
  0.7922  6388.7  1.5653 -0.0001 -0.0001  1.5E-4
  0.7906  6375.8  1.5684 -0.0001 -0.0001  1-4E-4
  0.6199    5000     2.0 -0.0001  3.7883 -0.0001
  0.4133    3333     3.0 -0.0001  3.7421 -0.0001
  0.3100    2500     4.0 -0.0001  3.7285 -0.0001
  0.2480    2000     5.0 -0.0001  3.7241 -0.0001
  0.2066    1667     6.0 -0.0001  3.7236 -0.0001
  0.1771    1429     7.0 -0.0001  3.7251 -0.0001
  0.1550    1250     8.0 -0.0001  3.7278 -0.0001
  0.1378    1111     9.0 -0.0001  3.7313 -0.0001
  0.1240    1000    10.0 -0.0001  3.7352 -0.0001
  0.1127   909.1    11.0 -0.0001  3.7395 -0.0001
  0.1033   833.3    12.0 -0.0001  3.7438 -0.0001
 0.09537   769.2    13.0 -0.0001  3.7481 -0.0001
 0.08856   714.3    14.0 -0.0001  3.7521 -0.0001
 0.08266   666.7    15.0 -0.0001  3.7557 -0.0001
 0.07749   625.0    16.0 -0.0001  3.7586 -0.0001
 0.07293   588.2    17.0 -0.0001  3.7608 -0.0001
 0.06889   555.6    18.0 -0.0001  3.7620 -0.0001
 0.06526   526.3    19.0 -0.0001  3.7620 -0.0001
 0.06199   500.0    20.0 -0.0001  3.7605 -0.0001
 0.05904   476.2    21.0 -0.0001  3.7574 -0.0001
 0.05636   454.5    22.0 -0.0001  3.7524 -0.0001
 0.05391   434.8    23.0 -0.0001  3.7453 -0.0001
 0.05166   416.7    24.0 -0.0001  3.7357 -0.0001
 0.04959   400.0    25.0 -0.0001  3.7235 -0.0001
 0.04769   384.6    26.0 -0.0001  3.7083 -0.0001
 0.04592   370.4    27.0 -0.0001  3.6898 -0.0001
 0.04428   357.1    28.0 -0.0001  3.6677 -0.0001
 0.04275   344.8    29.0 -0.0001    3.66  1.2E-3
 0.04133   333.3    30.0 -0.0001    3.65  1.5E-3
 0.04000   322.6    31.0 -0.0001    3.62  1.8E-3
 0.03875   312.5    32.0 -0.0001    3.60  2.3E-3
 0.03757   303.0    33.0 -0.0001    3.57  3.0E-3
 0.03647   294.1    34.0 -0.0001    3.53  4.0E-3
 0.03542   285.7    35.0 -0.0001    3.48  5.4E-3
 0.03444   277.8    36.0 -0.0001    3.42  7.5E-3
 0.03351   270.3    37.0 -0.0001    3.33 1.09E-2
 0.03263   263.2    38.0 -0.0001    3.21 1.69E-2
 0.03179   256.4    39.0 -0.0001    3.03 2.85E-2
 0.03100   250.0    40.0 -0.0001    2.71 5.61E-2
 0.03024   243.9    41.0 -0.0001    2.02   0.160
 0.02952   238.1    42.0 -0.0001   0.484    2.06
 0.02945   237.5    42.1 -0.0001   0.485    2.39
 0.02938   237.0    42.2 -0.0001   0.502    2.73
 0.02931   236.4    42.3 -0.0001   0.531    3.08
 0.02924   235.8    42.4 -0.0001   0.575    3.45
 0.02917   235.3    42.5 -0.0001   0.637    3.86
 0.02910   234.7    42.6 -0.0001   0.723    4.31
 0.02904   234.2    42.7 -0.0001   0.844    4.82
 0.02897   233.6    42.8 -0.0001    1.02    5.41
 0.02890   233.1    42.9 -0.0001    1.28    6.12
 0.02883   232.6    43.0 -0.0001    1.70    6.98
 0.02877   232.0    43.1 -0.0001    2.43    8.07
 0.02870   231.5    43.2 -0.0001    3.84    9.36
 0.02863   230.9    43.3 -0.0001    6.65    10.3
 0.02857   230.4    43.4 -0.0001    10.3    8.56
 0.02850   229.9    43.5 -0.0001    11.2    5.04
 0.02844   229.4    43.6 -0.0001    10.4    2.87
 0.02837   228.8    43.7 -0.0001    9.39    1.81
 0.02831   228.3    43.8 -0.0001    8.62    1.24
 0.02824   227.8    43.9 -0.0001    8.03   0.907
 0.02818   227.3    44.0 -0.0001    7.57   0.694
 0.02755   222.2    45.0 -0.0001    5.66   0.148
 0.02695   217.4    46.0 -0.0001    5.07 6.64E-2
 0.02638   212.8    47.0 -0.0001    4.78 3.85E-2
 0.02583   208.3    48.0 -0.0001    4.61 2.56E-2
 0.02530   204.1    49.0 -0.0001    4.50 1.84E-2
 0.02480  200.00    50.0 -0.0001    4.42 1.41E-2
 0.02066  166.67    60.0 -0.0001    4.13  3.4E-3
 0.01771  142.86    70.0 -0.0001    4.05  1.8E-3
 0.01550  125.00    80.0 -0.0001   4.026  1.2E-3
 0.01378  111.11    90.0 -0.0001   4.008  8.9E-4
 0.01240  100.00   100.0 -0.0001   3.997  7.2E-4
