;UO 
;UO Ge.ASC: Values of n and k for cubic germanium from various
;UO references in HOCI (pg. 471).  References are 1, 4, 5, 6, 
;UO 8, 10, 11, 12, 15, 16, 17, 18, 19, 21, 22. 
;UO 
;UO From HANDBOOK OF OPTICAL CONSTANTS IN SOLIDS edited by Edward D.
;UO Palik. Copyright (c) 1985 by Academic Press, Inc. Reproduced by
;UO permission of the publisher.
;UO ------------------------------------------------------------
;UO      eV    cm-1      um        n          k        k 
;UO ------------------------------------------------------------	
;N  6
;L  Energy[eV]  Wavelength[cm-1]  Wavelength[um]  n  k  k  
     125 1008200 0.009919 -0.0001 1.98E-2 -0.0001
     9.5   76620  0.1305 -0.0001     1.0 -0.0001
       9   72590  0.1378    0.92    1.14 -0.0001
     8.5   68560  0.1459    0.92     1.2 -0.0001
       8   64520  0.1550    0.92     1.4 -0.0001
     7.5   60490  0.1653 -0.0001     1.6 -0.0001
       7   56460  0.1771     1.0     1.8 -0.0001
     6.5   52430  0.1907     1.1    2.05 -0.0001
       6   48390  0.2066     1.3    2.34 -0.0001
       6   48390  0.2066   1.022   2.774 -0.0001
    5.94   47910  0.2087   1.073   2.801 -0.0001
     5.9   47590  0.2101   1.108   2.831 -0.0001
    5.84   47100  0.2123   1.167   2.862 -0.0001
     5.8   46780  0.2138   1.209   2.873 -0.0001
    5.75   46380  0.2156    1.48     2.4 -0.0001
    5.74   46300  0.2160   1.273   2.874 -0.0001
     5.7   45970  0.2175   1.293   2.163 -0.0001
    5.64   45490  0.2198   1.345   2.852 -0.0001
     5.6   45170  0.2214   1.360   2.846 -0.0001
    5.54   44680  0.2238   1.372   2.842 -0.0001
     5.5   44360  0.2254   1.380   2.842 -0.0001
    5.44   43880  0.2279   1.387   2.849 -0.0001
     5.4   43550  0.2296   1.383   2.854 -0.0001
    5.34   43070  0.2322   1.377   2.877 -0.0001
     5.3   42750  0.2339   1.371   2.897 -0.0001
    5.25   42340  0.2362    1.57     2.7 -0.0001
    5.24   42260  0.2366   1.366   2.938 -0.0001
     5.2   41940  0.2384   1.364   2.973 -0.0001
    5.14   41460  0.2412   1.366   3.031 -0.0001
     5.1   41130  0.2431   1.370   3.073 -0.0001
    5.04   40650  0.2460   1.382   3.146 -0.0001
     5.0   40330  0.2480   1.394   3.197 -0.0001
    4.84   39040  0.2562   1.470   3.439 -0.0001
     4.8   38710  0.2583   1.498   3.509 -0.0001
    4.74   38230  0.2616   1.546   3.624 -0.0001
     4.7   37910  0.2638   1.586   3.709 -0.0001
    4.64   37420  0.2672   1.659   3.852 -0.0001
     4.6   37100  0.2695   1.720   3.960 -0.0001
    4.54   36620  0.2731   1.839   4.147 -0.0001
     4.5   36290  0.2755   1.953   4.297 -0.0001
    4.44   35910  0.2792   2.226   4.543 -0.0001
     4.4   35080  0.2818   2.516   4.669 -0.0001
    4.34   35000  0.2857   3.038   4.653 -0.0001
     4.3   34680  0.2883   3.338   4.507 -0.0001
    4.24   34200  0.2924   3.633   4.207 -0.0001
     4.2   33880  0.2952   3.745   4.009 -0.0001
    4.14   33390  0.2995   3.837   3.756 -0.0001
     4.1   33070  0.3024   3.869   3.614 -0.0001
    4.04   32580  0.3069   3.896   3.436 -0.0001
     4.0   32260  0.3100   3.905   3.336 -0.0001
    3.94   31780  0.3147   3.916   3.209 -0.0001
     3.9   31460  0.3179   3.920   3.137 -0.0001
    3.84   30970  0.3229   3.930   3.043 -0.0001
     3.8   30650  0.3263   3.936   2.986 -0.0001
    3.74   30160  0.3315   3.949   2.909 -0.0001
     3.7   29840  0.3351   3.958   2.863 -0.0001
    3.64   29360  0.3406   3.974   2.799 -0.0001
     3.6   29040  0.3444   3.985   2.759 -0.0001
    3.54   28550  0.3502   4.005   2.702 -0.0001
     3.5   28230  0.3542   4.020   2.667 -0.0001
    3.44   27750  0.3604   4.048   2.615 -0.0001
     3.4   27420  0.3647   4.070   2.579 -0.0001
    3.34   26940  0.3712   4.106   2.517 -0.0001
     3.3   26620  0.3757   4.128   2.469 -0.0001
    3.24   26130  0.3827   4.150   2.392 -0.0001
     3.2   25810  0.3875   4.157   2.340 -0.0001
    3.14   25330  0.3949   4.153   2.262 -0.0001
     3.1   25000  0.4000   4.141   2.215 -0.0001
    3.04   24520  0.4078   4.107   2.164 -0.0001
     3.0   24200  0.4133   4.082   2.145 -0.0001
    2.94   23710  0.4217   4.052   2.135 -0.0001
     2.9   23390  0.4275   4.037   2.140 -0.0001
    2.84   22910  0.4366   4.030   2.162 -0.0001
     2.8   22580  0.4428   4.035   2.181 -0.0001
    2.74   22100  0.4525   4.058   2.215 -0.0001
     2.7   21780  0.4592   4.082   2.240 -0.0001
    2.64   21290  0.4696   4.133   2.281 -0.0001
     2.6   20970  0.4769   4.180   2.309 -0.0001
    2.54   20490  0.4881   4.267   2.353 -0.0001
     2.5   20160  0.4959   4.340   2.384 -0.0001
    2.44   19680  0.5081   4.482   2.429 -0.0001
     2.4   19360  0.5166   4.610   2.455 -0.0001
    2.34   18870  0.5299   4.883   2.434 -0.0001
     2.3   18550  0.5391   5.062   2.318 -0.0001
    2.24   18070  0.5535   5.198   2.125 -0.0001
     2.2   17740  0.5636   5.283   2.049 -0.0001
    2.14   17260  0.5794   5.554   1.924 -0.0001
     2.1   16940  0.5904   5.748   1.634 -0.0001
    2.05   16530  0.6048     5.9 -0.0001     1.1
    2.04   16450  0.6078   5.708   1.150 -0.0001
     2.0   16130  0,6199   5.588   0.933 -0.0001
     2.0   16130  0.6199    5.64 -0.0001     0.8
    1.95   15730  0.6358     5.5 -0.0001    0.66
     1.9   15320  0.6526    5.38 -0.0001    0.54
     1.9   15320  0.6526   5.294   0.638 -0.0001
    1.85  14,920  0.6702    5.21 -0.0001     0.4
     1.8   14520  0.6888    5.08 -0.0001    0.26
     1.8   14520  0.6888 -0.0001   0.466 -0.0001
    1.75   14110  0.7085    4.99 -0.0001     0.2
    1.74   14030  0.7126   4.961   0.430 -0.0001
     1.7   13710  0.7293   4.897   0.401 -0.0001
     1.7   13710  0.7293    4.95 -0.0001    0.18
     1.7   13710  0.7293 -0.0001   0.389 -0.0001
   1.240   10000     1.0 4.61733 -0.0001 -0.0001
   1.033    8333     1.2 4.35673 -0.0001 -0.0001
     0.9    7259   1.378   4.285 7.45E-2 -0.0001
  0.8856    7143     1.4 4.23840 -0.0001 -0.0001
    0.88    7098   1.409 -0.0001 6.73E-2 -0.0001
    0.86    6936   1.442 -0.0001 6.88E-2 -0.0001
    0.84    6775   1.476 -0.0001 6.58E-2 -0.0001
    0.82    6614   1.512 -0.0001 5.66E-2 -0.0001
     0.8    6452   1.550   4.275 5.67E-3 -0.0001
    0.78    6291   1.590 -0.0001 3.42E-3 -0.0001
   0.775    6251   1.600 4.17262 -0.0001 8.15E-4
    0.75    6049   1.653 -0.0001 -0.0001 5.06E-4
    0.74    5968   1.675 -0.0001 6.67E-4 -0.0001
   0.725    5847   1.710 -0.0001 -0.0001 3.01E-4
    0.72    5807   1.722 -0.0001 4.66E-4 -0.0001
     0.7    5646   1.771    4.18 2.82E-4 1.27E-4
  0.6888    5556     1.8 4.13164 -0.0001 -0.0001
  0.6888    5556     1.8   4.143 -0.0001 -0.0001
    0.68    5485   1.823 -0.0001 1.31E-4 -0.0001
   0.675    5444   1.837 -0.0001 -0.0001 4.22E-5
  0.6702    5405    1.85   4.135 -0.0001 -0.0001
    0.66    5323   1.879 -0.0001 6.73E-5 -0.0001
  0.6525    5263    1.90   4.129 -0.0001 -0.0001
    0.65    5243   1.907 -0.0001 -0.0001 9.71E-6
    0.64    5162   1.937 -0.0001 7.71E-6 -0.0001
   0.625    5041   1.984 -0.0001 -0.0001 1.42E-6
  0.6199    5000     2.0   4.116 -0.0001 -0.0001
  0.6199    5000     2.0 4.10415 -0.0001 -0.0001
     0.6    4839   2.066 -0.0001 -0.0001 6.58E-7
  0.5904    4762     2.1   4.104 -0.0001 -0.0001
  0.5636    4545     2.2   4.092 -0.0001 -0.0001
  0.5636    4545     2.2 4.08469 -0.0001 -0.0001
  0.5391    4348     2.3   4.085 -0.0001 -0.0001
  0.5166    4167     2.4   4.078 -0.0001 -0.0001
  0.5166    4167     2.4 4.07038 -0.0001 -0.0001
  0.4959    4000     2.5   4.072 -0.0001 -0.0001
  0.4854    3915   2.554 4.06230 -0.0001 -0.0001
  0.4769    3846     2.6   4.068 -0.0001 -0.0001
  0.4769    3846     2.6 4.05951 -0.0001 -0.0001
  0.4675    3771   2.652 4.05754 -0.0001 -0.0001
  0.4538    3660   2.732 4.05310 -0.0001 -0.0001
  0.4428    3571     2.8 4.05105 -0.0001 -0.0001
  0.4341    3501   2.856 4.04947 -0.0001 -0.0001
  0.4191    3381   2.958 4.04595 -0.0001 -0.0001
  0.4133    3333     3.0 4.04433 -0.0001 -0.0001
  0.4012    3236    3.09 4.04292 -0.0001 -0.0001
  0.3874    3125     3.2 4.03889 -0.0001 -0.0001
  0.3647    2941     3.4 4.03443 -0.0001 -0.0001
  0.3444    2778     3.6 4.03072 -0.0001 -0.0001
  0.3263    2632     3.8 4.02760 -0.0001 -0.0001
  0.3100    2500     4.0 4.02495 -0.0001 -0.0001
  0.3009    2427    4.12 4.02457 -0.0001 -0.0001
  0.2952    2381     4.2 4.02268 -0.0001 -0.0001
  0.2818    2273     4.4 4.02072 -0.0001 -0.0001
  0.2695    2174     4.6 4.01901 -0.0001 -0.0001
  0.2583    2083     4.8 4.01751 -0.0001 -0.0001
  0.2480    2000     5.0 4.01619 -0.0001 -0.0001
  0.2389    1927    5.19 4.01617 -0.0001 -0.0001
  0.2384    1923     5.2 4.01503 -0.0001 -0.0001
  0.2296    1852     5.4 4.01399 -0.0001 -0.0001
  0.2214    1786     5.6 4.01305 -0.0001 -0.0001
  0.2138    1724     5.8 4.01222 -0.0001 -0.0001
  0.2066    1667     6.0 4.01146 -0.0001 -0.0001
  0.2000    1613     6.2 4.01078 -0.0001 -0.0001
  0.1937    1563     6.4 4.01015 -0.0001 -0.0001
  0.1879    1515     6.6 4.00958 -0.0001 -0.0001
  0.1823    1471     6.8 4.00906 -0.0001 -0.0001
  0.1771    1429     7.0 4.00858 -0.0001 -0.0001
  0.1722    1389     7.2 4.00814 -0.0001 -0.0001
  0.1675    1351     7.4 4.00773 -0.0001 -0.0001
  0.1631    1316     7.6 4.00736 -0.0001 -0.0001
  0.1590    1282     7.8 4.00701 -0.0001 -0.0001
  0.1550    1250     8.0 4.00668 -0.0001 -0.0001
  0.1550    1250     8.0 4.00748 -0.0001 -0.0001
  0.1512    1220     8.2 4.00637 -0.0001 -0.0001
  0.1506    1215    8.23 4.00743 -0.0001 -0.0001
  0.1476    1190     8.4 4.00609 -0.0001 -0.0001
  0.1442    1163     8.6 4.00582 -0.0001 -0.0001
  0.1409    1136     8.8 4.00556 -0.0001 -0.0001
  0.1378    1111     9.0 4.00533 -0.0001 -0.0001
  0.1378    1111     9.0 4.00620 -0.0001 -0.0001
  0.1348    1087     9.2 4.00510 -0.0001 -0.0001
  0.1319    1064     9.4 4.00489 -0.0001 -0.0001
  0.1292    1042     9.6 4.00469 -0.0001 -0.0001
  0.1265    1020     9.8 4.00449 -0.0001 -0.0001
  0.1240    1000    10.0 4.00431 -0.0001 -0.0001
  0.1240    1000    10.0 4.00525 -0.0001 1.43E-5
  0.1207   973.7   10.27 4.00571 -0.0001 -0.0001
  0.1181   952.4    10.5 4.00389 -0.0001 -0.0001
  0.1137   917.4    10.9 -0.0001 -0.0001 1.30E-5
  0.1127   909.1    11.0 4.00351 -0.0001 -0.0001
  0.1127   909.1    11.0 4.00436 -0.0001 -0.0001
  0.1078   869.6    11.5 4.00316 -0.0001 -0.0001
  0.1033   833.3    12.0 4.00285 -0.0001 3.82E-5
  0.1033   833.3    12.0 4.00398 -0.0001 -0.0001
  0.1003   809.1   12.36 4.00627 -0.0001 -0.0001
 0.09919   800.0    12.5 4.00255 -0.0001 -0.0001
 0.09840   793.7    12.6 -0.0001 -0.0001 3.51E-5
 0.09537   769.2    13.0 4.00228 -0.0001 -0.0001
 0.09537   769.2    13.0 4.00352 -0.0001 -0.0001
 0.09460   763.4    13.1 -0.0001 -0.0001 4.59E-5
 0.09184   740.7    13.5 4.00202 -0.0001 -0.0001
 0.08920   719.4    13.9 -0.0001 -0.0001 3.98E-5
 0.08856   714.3    14.0 4.00177 -0.0001 -0.0001
 0.08856   714.3    14.0 4.00315 -0.0001 -0.0001
 0.08551   689.7    14.5 4.00153 -0.0001 5.77E-5
 0.08431     680   14.71 -0.0001 2.34E-5 -0.0001
 0.08307     670   14.93 -0.0001 3.56E-5 -0.0001
 0.08266   666.7    15.0 4.00130 -0.0001 9.78E-5
 0.08183     660   15.15 -0.0001 5.30E-5 -0.0001
 0.08157   657.9    15.2 -0.0001 -0.0001  1.2E-4
 0.08059     650   15.38 -0.0001 6.24E-5 -0.0001
 0.07999   645.2    15.5 4.00107 -0.0001 1.71E-4
 0.07935     640   15.63 -0.0001 7.34E-5 -0.0001
 0.07811     630   15.87 -0.0001 7.33E-5 -0.0001
 0.07749   625.0    16.0 4.00086 -0.0001 9.55E-5
 0.07687     620   16.13 -0.0001 6.54E-5 -0.0001
 0.07563     610   16.39 -0.0001 5.61E-5 -0.0001
 0.07514   606.1    16.5 -0.0001 -0.0001 1.58E-4
 0.07439     600   16.67 -0.0001 4.91E-5 -0.0001
 0.07377     595   16.81 -0.0001 6.02E-5 -0.0001
 0.07315     590   16.95 -0.0001 9.44E-5 -0.0001
 0.07293   588.2    17.0 4.00043 -0.0001 2.57E-4
 0.07191     580   17.24 -0.0001 1.64E-4 -0.0001
 0.07085   571.4    17.5 -0.0001 -0.0001 3.90E-4
 0.07067     570   17.54 -0.0001 2.09E-4 -0.0001
 0.06943     560   17.86 -0.0001 2.56E-4 -0.0001
 0.06888   555.6    18.0 4.00001 -0.0001 3.01E-4
 0.06819     550   18.18 -0.0001 2.68E-4 -0.0001
 0.06757     545   18.35 -0.0001 2.63E-4 -0.0001
 0.06702   540.5    18.5 -0.0001 -0.0001 4.27E-4
 0.06695     540   18.52 -0.0001 2.51E-4 -0.0001
 0.06633     535   18.69 -0.0001 2.68E-4 -0.0001
 0.06571     530   18.87 -0.0001 3.00E-4 -0.0001
 0.06526   526.3    19.0 3.99958 -0.0001 4.53E-4
 0.06447     520   19.23 -0.0001 3.21E-4 -0.0001
 0.06358   512.8    19.5 -0.0001 -0.0001 4.03E-4
 0.06323     510   19.61 -0.0001 3.12E-4 -0.0001
 0.06199     500   20.00 3.99915 2.39E-4 3.98E-4
 0.06075     490   20.41 -0.0001 1.94E-4 -0.0001
 0.06048   487.8    20.5 -0.0001 -0.0001 3.92E-4
 0.05951     480   20.83 -0.0001 2.49E-4 -0.0001
 0.05904   476.2      21 -0.0001 -0.0001 5.01E-4
 0.05827     470   21.28 -0.0001 3.39E-4 -0.0001
 0.05767   465.1    21.5 -0.0001 -0.0001 7.70E-4
 0.05703     460   21.74 -0.0001 4.67E-4 -0.0001
 0.05636   454.5    22.0 3.99825 -0.0001 1.02E-3
 0.05579     450   22.22 -0.0001 5.84E-4  6.0E-4
 0.05455     440   22.73 -0.0001 7.24E-4  8.0E-4
 0.05331     430   23.26 -0.0001 1.11E-3  1.1E-3
 0.05269     425   23.53 -0.0001 1.27E-3 -0.0001
 0.05207     420   23.81 -0.0001 1.10E-3 1.35E-3
 0.05166   416.7    24.0 3.99728 -0.0001 -0.0001
 0.05083     410   24.39 -0.0001 7.77E-4  1.4E-3
 0.05021     405   24.69 -0.0001 -0.0001  9.0E-4
 0.04959     400   25.00 -0.0001 6.17E-4  8.0E-4
 0.04897     395   25.32 -0.0001 8.06E-4  1.5E-3
 0.04835     390   25.64 -0.0001 1.73E-3  2.0E-3
 0.04769   384.6    26.0 3.99621 -0.0001 -0.0001
 0.04711     380   26.32 -0.0001 2.30E-3  2.1E-3
 0.04587     370   27.03 -0.0001 2.80E-3  2.5E-3
 0.04463     360   27.78 -0.0001 3.76E-3  3.4E-3
 0.04428   357.1    28.0 3.99500 -0.0001 -0.0001
 0.04401     355   28.17 -0.0001 -0.0001  5.5E-3
 0.04370   352.5   28.37 -0.0001 -0.0001  6.7E-3
 0.04339     350   28.57 -0.0001 5.23E-3  6.3E-3
 0.04308   347.5   28.78 -0.0001 -0.0001  6.7E-3
 0.04277     345   28.99 -0.0001 6.92E-3  6.5E-3
 0.04215     340   29.41 -0.0001 4.68E-3  3.2E-3
 0.04133   333.3    30.0 3.99363 -0.0001 -0.0001
 0.04092     330   30.30 -0.0001 3.62E-3 2.95E-3
 0.03968     320   31.25 -0.0001 2.98E-3  2.9E-3
 0.03844     310   32.26 -0.0001 2.82E-3  2.7E-3
 0.03782     305   32.79 -0.0001 3.00E-3 -0.0001
 0.03720     300   33.33 -0.0001 3.18E-3 2.75E-3
 0.03658     295   33.90 -0.0001 2.83E-3 -0.0001
 0.03596     290   34.48 -0.0001 2.74E-3 3.05E-3
 0.03542   285.7      35 3.98925 -0.0001 -0.0001
 0.03534     285   35.09 -0.0001 -0.0001 3.45E-3
 0.03472     280   35.71 -0.0001 -0.0001 3.55E-3
 0.03410     275   36.36 -0.0001 -0.0001  3.3E-3
 0.03348     270   37.04 -0.0001 -0.0001 2.75E-3
 0.03224     260   38.46 -0.0001 -0.0001 1.55E-3
 0.03100     250   40.00 3.98272 -0.0001  8.5E-4
 0.02976     240   41.67 -0.0001 -0.0001    7E-4
 0.02852     230   43.48 -0.0001 -0.0001  6.5E-4
 0.02728     220   45.45 -0.0001 -0.0001  8.5E-4
 0.02604     210   47.62 -0.0001 -0.0001 1.25E-3
 0.02480     200   50.00 -0.0001 -0.0001  1.5E-3
 0.02356     190   52.63 -0.0001 -0.0001 1.53E-3
 0.02232     180   55.56 -0.0001 -0.0001 1.55E-3
 0.02108     170   58.82 -0.0001 -0.0001  1.6E-3
 0.01984     160   62.50 -0.0001 -0.0001  1.6E-3
 0.01860     150   66.67 -0.0001 -0.0001  1.5E-3
 0.01736     140   71.43  4.0060 1.02E-3  1.5E-3
 0.01643   132.5   75.47  4.0060 1.14E-3 -0.0001
 0.01612     130   76.92 -0.0001 -0.0001 1.55E-3
 0.01550     125   80.00  4.0060 1.27E-3 -0.0001
 0.01488     120   83.33 -0.0001 -0.0001  1.7E-3
 0.01457  117.05   85.11  4.0060 1.62E-3 -0.0001
 0.01364     110   90.91  4.0063 2.10E-3  2.4E-3
 0.01302     105   95.24 -0.0001 -0.0001  2.8E-3
 0.01271   102.5   97.56  4.0064 2.41E-3 -0.0001
 0.01240     100   100.0 -0.0001 -0.0001  3.0E-3
 0.01178      95   105.3  4.0067 2.01E-3  2.5E-3
 0.01116      90   111.1 -0.0001 -0.0001  2.1E-3
 0.01085    87.5   114.3  4.0068 1.73E-3 -0.0001
 0.009919      80   125.0  4.0067 1.59E-3 -0.0001
 0.008989    72.5   137.9  4.0067 1.43E-3 -0.0001
 0.008059      65   153.8  4.0065 1.34E-3 -0.0001
 0.007129    57.5   173.9  4.0061 1.10E-3 -0.0001
 0.006199      50   200.0  4.0059 1.11E-3 -0.0001
 0.005269    42.5   235.3  4.0056 1.50E-3 -0.0001
 0.004339      35   285.7  4.0052 2.04E-3 -0.0001
 0.003410    27.5   363.6  4.0047 2.89E-3 -0.0001
 0.002480      20   500.0  4.0043 4.77E-3 -0.0001
