;UO 
;UO Hg.ASC: Values of n and k for liquid  mercury from various
;UO references in HOCII (pg. 467).  Reference is 11.
;UO 
;UO From HANDBOOK OF OPTICAL CONSTANTS IN SOLIDS II edited by Edward D.
;UO Palik. Copyright (c) 1991 by Academic Press, Inc. Reproduced by
;UO permission of the publisher.
;UO -----------------------------------------------------------
;UO    eV     cm-1       um             n             k 
;UO -----------------------------------------------------------
;N  5
;L  Energy[eV]  Wavelength[cm-1]  Wavelength[um]  n  k  
    19.5 157280. 0.06358   1.208   0.364
    19.0 153240. 0.06526   1.200   0.366
    18.5 149210. 0.06702   1.195   0.367
    18.0 145180. 0.06888   1.191   0.367
    17.5 141150. 0.07085   1.184   0.366
    17.0 137110. 0.07293   1.177   0.367
    16.5 133080. 0.07514   1.170   0.367
    16.0 129050. 0.07749   1.159   0.368
    15.5 125020. 0.07999   1.146   0.374
    15.0 120980. 0.08266   1.135   0.383
    14.5 116950. 0.08551   1.125   0.394
    14.0 112920. 0.08856   1.115   0.404
    13.5 108880. 0.09184   1.104   0.416
    13.0 104850. 0.09537   1.092   0.430
    12.5 100820. 0.09919   1.078   0.445
    12.0  96788.  0.1033   1.064   0.467
    11.5  92753.  0.1078   1.050   0.491
    11.0  88720.  0.1127   1.039   0.523
    10.8  87107.  0.1148   1.039   0.537
    10.6  85494.  0.1170   1.041   0.550
    10.4  83881.  0.1192   1.045   0.561
    10.2  82268.  0.1216   1.054   0.569
    10.0  80655.  0.1240   1.062   0.567
     9.8  79042.  0.1265   1.061   0.557
     9.6  77429.  0.1292   1.044   0.541
     9.4  75816.  0.1319   1.009   0.548
     9.2  74202.  0.1348   0.988   0.568
     9.0  72589.  0.1378   0.975   0.588
     8.8  70976.  0.1409   0.965   0.607
     8.6  69363.  0.1442   0.956   0.624
     8.4  67750.  0.1476   0.953   0.638
     8.2  66137.  0.1512   0.952   0.645
     8.0  64524.  0.1550   0.946   0.639
     7.8  62911.  0.1590   0.929   0.623
     7.6  61298.  0.1631   0.893   0.597
     7.5  60491.  0.1653   0.860   0.580
     7.4  59685.  0.1675   0.817   0.574
     7.3  58878.  0.1698   0.769   0.575
     7.2  58071.  0.1722   0.717   0.584
     7.1  57265.  0.1746   0.663   0.589
     7.0  56458.  0.1771   0.585   0.617
     6.9  55652.  0.1797   0.510   0.676
     6.8  54845.  0.1823   0.459   0.756
     6.7  54039.  0.1851   0.438   0.836
     6.6  53232.  0.1879   0.436   0.898
     6.5  52426.  0.1907   0.428   0.949
     6.4  51619.  0.1937   0.412   1.002
     6.3  50813.  0.1968   0.399   1.058
     6.2  50006.  0.2000   0.390   1.118
     6.1  49199.  0.2033   0.388   1.176
     6.0  48393.  0.2066   0.386   1.232
     5.9  47586.  0.2101   0.385   1.287
     5.8  46780.  0.2138   0.386   1.341
     5.7  45973.  0.2175   0.386   1.396
     5.6  45167.  0.2214   0.386   1.454
     5.5  44360.  0.2254   0.390   1.512
     5.4  43554.  0.2296   0.394   1.569
     5.2  41940.  0.2384   0.401   1.687
     5.0  40327.  0.2480   0.414   1.806
     4.8  38714.  0.2583   0.431   1.929
     4.6  37101.  0.2695   0.452   2.058
     4.4  35488.  0.2818   0.477   2.195
     4.2  33875.  0.2952   0.507   2.341
     4.0  32262.  0.3100   0.542   2.502
     3.8  30649.  0.3263   0.589   2.665
     3.6  29036.  0.3444   0.644   2.860
     3.4  27423.  0.3647   0.713   3.074
     3.2  25810.  0.3875   0.798   3.294
     3.0  24196.  0.4133   0.898   3.538
     2.8  22583.  0.4428   1.027   3.802
     2.6  20970.  0.4769   1.186   4.090
     2.4  19357.  0.5166   1.384   4.407
     2.2  17744.  0.5636   1.620   4.751
     2.0  16131.  0.6199   1.910   5.150
     1.8  14518.  0.6888   2.284   5.582
     1.6  12905.  0.7749   2.746   6.054
     1.4  11292.  0.8856   3.324   6.558
     1.2   9679.   1.033   4.050   7.082
     1.0   8065.   1.240   4.962   7.643
     0.8   6452.   1.550   6.086   8.312
     0.6   4839.   2.066   7.574   9.195
     0.5   4033.   2.480   8.528   9.805
     0.4   3226.   3.100   9.741   10.65
     0.3   2420.   4.133   11.37   11.95
     0.2   1613.   6.199   13.99   14.27
