;UO 
;UO Hg09Cd91.TeA:  Values of n and k for cubic mercury cadmium
;UO telluride (Hg0.09Cd0.91Te) from various references in HOCII
;UO (pg. 676).  Reference is 6.   
;UO 
;UO Copyright (c) 1995 the Optical Society of America.  Contains data
;UO from HANDBOOK OF OPTICAL CONSTANTS IN SOLIDS II edited by Edward D.
;UO Palik. Copyright (c) 1991 by Academic Press, Inc. Reproduced by
;UO permission of the publisher.
;UO ----------------------------------------------------------
;UO      eV   cm-1      um        n         k  
;UO ----------------------------------------------------------
;N  5
;L  Energy[eV]  Wavelength[cm-1]  Wavelength[um]  n  k  
    5.50   44362  0.2254    1.41    2.10
    5.46   44039  0.2271    1.43    2.13
    5.42   43717  0.2287    1.46    2.16
    5.38   43394  0.2304    1.50    2.19
    5.34   43071  0.2322    1.57    2.22
    5.30   42749  0.2339    1.62    2.24
    5.26   42426  0.2357    1.68    2.25
    5.22   42104  0.2375    1.75    2.25
    5.18   41781  0.2393    1.85    2.25
    5.14   41458  0.2412    1.95    2.23
    5.10   41136  0.2431    2.03    2.21
    5.06   40813  0.2450    2.10    2.20
    5.02   40490  0.2470    2.19    2.14
    4.98   40168  0.2490    2.28    2.08
    4.94   39845  0.2510    2.33    2.04
    4.90   39523  0.2530    2.37    1.99
    4.86   39200  0.2551    2.40    1.94
    4.82   38877  0.2572    2.42    1.89
    4.78   38555  0.2594    2.43    1.85
    4.74   38232  0.2616    2.44    1.82
    4.70   37909  0.2638    2.45    1.79
    4.66   37587  0.2661    2.45    1.76
    4.62   37264  0.2684    2.45    1.74
    4.58   36941  0.2707    2.45    1.72
    4.54   36619  0.2731    2.44    1.70
    4.50   36296  0.2755    2.44    1.69
    4.46   35974  0.2780    2.44    1.67
    4.42   35651  0.2805    2.43    1.66
    4.38   35328  0.2831    2.43    1.66
    4.34   35006  0.2857    2.43    1.65
    4.30   34683  0.2883    2.43    1.65
    4.26   34360  0.2910    2.43    1.66
    4.22   34038  0.2938    2.44    1.66
    4.18   33715  0.2966    2.44    1.66
    4.14   33392  0.2995    2.44    1.67
    4.10   33070  0.3024    2.45    1.68
    4.06   32747  0.3054    2.47    1.69
    4.02   32425  0.3084    2.48    1.70
    3.98   32102  0.3115    2.49    1.72
    3.94   31779  0.3147    2.51    1.73
    3.90   31457  0.3179    2.56    1.74
    3.86   31134  0.3212    2.60    1.76
    3.82   30811  0.3246    2.63    1.77
    3.78   30489  0.3280    2.68    1.78
    3.74   30166  0.3315    2.75    1.77
    3.70   29844  0.3351    2.81    1.74
    3.66   29521  0.3387    2.84    1.72
    3.62   29198  0.3425    2.88    1.69
    3.58   28876  0.3463    2.91    1.65
    3.54   28553  0.3502    2.94    1.62
    3.50   28230  0.3542    2.96    1.60
    3.46   27908  0.3583    2.98    1.58
    3.42   27585  0.3625    3.00    1.56
    3.38   27262  0.3668    3.01    1.55
    3.34   26940  0.3712    3.04    1.55
    3.30   26617  0.3757    3.07    1.55
    3.26   26295  0.3803    3.11    1.54
    3.22   25972  0.3850    3.16    1.53
    3.18   25649  0.3899    3.24    1.50
    3.14   25327  0.3948    3.31    1.46
    3.10   25004  0.3999    3.36    1.42
    3.06   24681  0.4052    3.42    1.33
    3.02   24359  0.4105    3.47    1.22
    2.98   24036  0.4160    3.50    1.12
    2.94   23714  0.4217    3.50    1.04
    2.90   23391  0.4275    3.49   0.981
    2.86   23068  0.4335    3.48   0.923
    2.82   22746  0.4396    3.47   0.857
    2.78   22423  0.4460    3.45   0.799
    2.74   22100  0.4525    3.44   0.770
    2.70   21778  0.4592    3.43   0.731
    2.66   21455  0.4661    3.41   0.688
    2.62   21132  0.4732    3.39   0.644
    2.58   20810  0.4805    3.38   0.611
    2.54   20487  0.4881    3.36   0.582
    2.50   20165  0.4959    3.35   0.547
    2.46   19842  0.5040    3.33   0.516
    2.42   19519  0.5123    3.31   0.485
    2.38   19197  0.5209    3.29   0.455
    2.34   18874  0.5298    3.28   0.429
    2.30   18551  0.5390    3.26   0.405
    2.26   18229  0.5486    3.24   0.379
    2.22   17906  0.5585    3.23   0.353
    2.18   17583  0.5687    3.21   0.333
    2.14   17261  0.5793    3.20   0.314
    2.10   16938  0.5904    3.19   0.298
    2.06   16616  0.6018    3.18   0.285
    2.02   16293  0.6138    3.16   0.279
    1.98   15970  0.6262    3.15   0.272
    1.94   15648  0.6391    3.14   0.263
    1.90   15325  0.6525    3.12   0.260
    1.86   15002  0.6666    3.12   0.259
    1.82   14680  0.6812    3.11   0.258
    1.78   14357  0.6965    3.09   0.260
    1.74   14035  0.7125    3.08   0.263
    1.70   13712  0.7293    3.07   0.266
