;UO 
;UO Hg14Cd86.TeA:  Values of n and k for cubic mercury cadmium
;UO telluride (Hg0.14Cd0.86Te) from various references in HOCII
;UO (pg. 676).  Reference is 6.   
;UO 
;UO Copyright (c) 1995 the Optical Society of America.  Contains data
;UO from HANDBOOK OF OPTICAL CONSTANTS IN SOLIDS II edited by Edward D.
;UO Palik. Copyright (c) 1991 by Academic Press, Inc. Reproduced by
;UO permission of the publisher.
;UO ----------------------------------------------------------
;UO      eV   cm-1      um         n        k    
;UO ----------------------------------------------------------
;N  5
;L  Energy[eV]  Wavelength[cm-1]  Wavelength[um]  n  k  
    5.50   44362  0.2254    1.41    2.05
    5.46   44039  0.2271    1.42    2.08
    5.42   43717  0.2287    1.47    2.11
    5.38   43394  0.2304    1.51    2.13
    5.34   43071  0.2322    1.56    2.16
    5.30   42749  0.2339    1.62    2.18
    5.26   42426  0.2357    1.68    2.21
    5.22   42104  0.2375    1.74    2.22
    5.18   41781  0.2393    1.81    2.21
    5.14   41458  0.2412    1.91    2.23
    5.10   41136  0.2431    1.99    2.22
    5.06   40813  0.2450    2.06    2.22
    5.02   40490  0.2470    2.14    2.19
    4.98   40168  0.2490    2.21    2.14
    4.94   39845  0.2510    2.25    2.11
    4.90   39523  0.2530    2.29    2.06
    4.86   39200  0.2551    2.32    2.01
    4.82   38877  0.2572    2.33    1.95
    4.78   38555  0.2594    2.35    1.90
    4.74   38232  0.2616    2.36    1.87
    4.70   37909  0.2638    2.36    1.84
    4.66   37587  0.2661    2.37    1.80
    4.62   37264  0.2684    2.37    1.77
    4.58   36941  0.2707    2.37    1.75
    4.54   36619  0.2731    2.37    1.73
    4.50   36296  0.2755    2.36    1.71
    4.46   35974  0.2780    2.37    1.69
    4.42   35651  0.2805    2.37    1.68
    4.38   35328  0.2831    2.38    1.67
    4.34   35006  0.2857    2.38    1.67
    4.30   34683  0.2883    2.38    1.66
    4.26   34360  0.2910    2.39    1.66
    4.22   34038  0.2938    2.39    1.65
    4.18   33715  0.2966    2.40    1.65
    4.14   33392  0.2995    2.40    1.65
    4.10   33070  0.3024    2.41    1.65
    4.06   32747  0.3054    2.42    1.66
    4.02   32425  0.3084    2.42    1.66
    3.98   32102  0.3115    2.43    1.67
    3.94   31779  0.3147    2.45    1.67
    3.90   31457  0.3179    2.47    1.68
    3.86   31134  0.3212    2.49    1.69
    3.82   30811  0.3246    2.51    1.70
    3.78   30489  0.3280    2.53    1.71
    3.74   30166  0.3315    2.56    1.72
    3.70   29844  0.3351    2.60    1.73
    3.66   29521  0.3387    2.64    1.73
    3.62   29198  0.3425    2.67    1.74
    3.58   28876  0.3463    2.73    1.73
    3.54   28553  0.3502    2.79    1.70
    3.50   28230  0.3542    2.82    1.68
    3.46   27908  0.3583    2.86    1.65
    3.42   27585  0.3625    2.88    1.62
    3.38   27262  0.3668    2.91    1.59
    3.34   26940  0.3712    2.94    1.57
    3.30   26617  0.3757    2.96    1.55
    3.26   26295  0.3803    2.98    1.53
    3.22   25972  0.3850    3.00    1.52
    3.18   25649  0.3899    3.03    1.50
    3.14   25327  0.3948    3.07    1.49
    3.10   25004  0.3999    3.09    1.48
    3.06   24681  0.4052    3.13    1.47
    3.02   24359  0.4105    3.18    1.45
    2.98   24036  0.4160    3.26    1.41
    2.94   23714  0.4217    3.31    1.35
    2.90   23391  0.4275    3.35    1.29
    2.86   23068  0.4335    3.38    1.21
    2.82   22746  0.4396    3.41    1.12
    2.78   22423  0.4460    3.44    1.04
    2.74   22100  0.4525    3.45   0.983
    2.70   21778  0.4592    3.45   0.918
    2.66   21455  0.4661    3.45   0.864
    2.62   21132  0.4732    3.43   0.807
    2.58   20810  0.4805    3.42   0.759
    2.54   20487  0.4881    3.41   0.714
    2.50   20165  0.4959    3.40   0.672
    2.46   19842  0.5040    3.38   0.629
    2.42   19519  0.5123    3.37   0.590
    2.38   19197  0.5209    3.35   0.558
    2.34   18874  0.5298    3.34   0.529
    2.30   18551  0.5390    3.33   0.498
    2.26   18229  0.5486    3.32   0.461
    2.22   17906  0.5585    3.30   0.431
    2.18   17583  0.5687    3.29   0.404
    2.14   17261  0.5793    3.28   0.376
    2.10   16938  0.5904    3.27   0.343
    2.06   16616  0.6018    3.25   0.313
    2.02   16293  0.6138    3.24   0.287
    1.98   15970  0.6262    3.23   0.268
    1.94   15648  0.6391    3.22   0.251
    1.90   15325  0.6525    3.21   0.239
    1.86   15002  0.6666    3.19   0.238
    1.82   14680  0.6812    3.18   0.239
    1.78   14357  0.6965    3.17   0.241
    1.74   14035  0.7125    3.16   0.244
    1.70   13712  0.7293    3.16   0.246
