;UO 
;UO Hg71Cd29.TeA:  Values of n and k for cubic mercury cadmium
;UO telluride (Hg0.71Cd0.29Te) from various references in HOCII
;UO (pg. 670, 683).  Reference is 5, 26, 31. 
;UO 
;UO Copyright (c) 1995 the Optical Society of America.  Contains data
;UO from HANDBOOK OF OPTICAL CONSTANTS IN SOLIDS II edited by Edward D.
;UO Palik. Copyright (c) 1991 by Academic Press, Inc. Reproduced by
;UO permission of the publisher.
;UO ----------------------------------------------------------
;UO      eV    cm-1     um         n        k    
;UO ----------------------------------------------------------	
;N  5
;L  Energy[eV]  Wavelength[cm-1]  Wavelength[um]  n  k  
   6.000   48395  0.2066   1.384   1.712
   5.982   48249  0.2073   1.383   1.710
   5.964   48103  0.2079   1.409   1.717
   5.946   47958  0.2085   1.380   1.729
   5.928   47812  0.2092   1.390   1.722
   5.910   47666  0.2098   1.396   1.729
   5.892   47520  0.2104   1.386   1.736
   5.873   47375  0.2111   1.384   1.744
   5.855   47229  0.2117   1.383   1.752
   5.837   47083  0.2124   1.382   1.761
   5.819   46937  0.2131   1.377   1.775
   5.801   46791  0.2137   1.376   1.775
   5.783   46646  0.2144   1.378   1.788
   5.765   46500  0.2151   1.379   1.800
   5.747   46354  0.2157   1.377   1.808
   5.729   46208  0.2164   1.380   1.819
   5.711   46063  0.2171   1.382   1.833
   5.693   45917  0.2178   1.382   1.843
   5.675   45771  0.2185   1.386   1.855
   5.657   45625  0.2192   1.391   1.870
   5.639   45480  0.2199   1.395   1.885
   5.620   45334  0.2206   1.400   1.895
   5.602   45188  0.2213   1.408   1.913
   5.584   45042  0.2220   1.414   1.926
   5.566   44896  0.2227   1.421   1.939
   5.548   44751  0.2235   1.430   1.953
   5.530   44605  0.2242   1.439   1.967
   5.512   44459  0.2249   1.449   1.980
   5.494   44313  0.2257   1.459   1.994
   5.476   44168  0.2264   1.471   2.008
   5.458   44022  0.2272   1.482   2.020
   5.440   43876  0.2279   1.495   2.034
   5.422   43730  0.2287   1.510   2.046
   5.404   43585  0.2294   1.525   2.058
   5.386   43439  0.2302   1.540   2.068
   5.367   43293  0.2310   1.557   2.079
   5.349   43147  0.2318   1.572   2.088
   5.331   43001  0.2326   1.589   2.097
   5.313   42856  0.2333   1.606   2.106
   5.295   42710  0.2341   1.621   2.114
   5.277   42564  0.2349   1.638   2.122
   5.259   42418  0.2357   1.656   2.130
   5.241   42273  0.2366   1.672   2.138
   5.223   42127  0.2374   1.691   2.145
   5.205   41981  0.2382   1.707   2.152
   5.187   41835  0.2390   1.726   2.158
   5.169   41690  0.2399   1.745   2.166
   5.151   41544  0.2407   1.764   2.172
   5.133   41398  0.2416   1.783   2.176
   5.114   41252  0.2424   1.802   2.181
   5.096   41107  0.2433   1.822   2.185
   5.078   40961  0.2441   1.842   2.188
   5.060   40815  0.2450   1.862   2.191
   5.042   40669  0.2459   1.882   2.194
   5.024   40523  0.2468   1.903   2.196
   5.006   40378  0.2477   1.923   2.198
   4.988   40232  0.2486   1.943   2.200
   4.970   40086  0.2495   1.965   2.201
   4.952   39940  0.2504   1.987   2.201
   4.934   39795  0.2513   2.008   2.202
   4.916   39649  0.2522   2.031   2.202
   4.898   39503  0.2531   2.054   2.201
   4.880   39357  0.2541   2.077   2.199
   4.861   39212  0.2550   2.100   2.197
   4.843   39066  0.2560   2.121   2.194
   4.825   38920  0.2569   2.146   2.190
   4.807   38774  0.2579   2.169   2.185
   4.789   38628  0.2589   2.194   2.180
   4.771   38483  0.2599   2.218   2.173
   4.753   38337  0.2608   2.243   2.164
   4.735   38191  0.2618   2.267   2.155
   4.717   38045  0.2628   2.291   2.145
   4.699   37900  0.2639   2.315   2.132
   4.681   37754  0.2649   2.338   2.117
   4.663   37608  0.2659   2.361   2.101
   4.645   37462  0.2669   2.381   2.084
   4.627   37317  0.2680   2.400   2.066
   4.608   37171  0.2690   2.418   2.047
   4.590   37025  0.2701   2.435   2.028
   4.572   36879  0.2712   2.449   2.008
   4.554   36733  0.2722   2.462   1.988
   4.536   36588  0.2733   2.475   1.969
   4.518   36442  0.2744   2.485   1.948
   4.500   36296  0.2755   2.494   1.928
   4.482   36150  0.2766   2.502   1.908
   4.464   36005  0.2777   2.508   1.888
   4.446   35859  0.2789   2.513   1.870
   4.428   35713  0.2800   2.517   1.852
   4.410   35567  0.2812   2.519   1.835
   4.392   35422  0.2823   2.520   1.818
   4.373   35276  0.2835   2.521   1.803
   4.355   35130  0.2847   2.521   1.789
   4.337   34984  0.2858   2.522   1.775
   4.319   34839  0.2870   2.521   1.762
   4.301   34693  0.2882   2.521   1.751
   4.283   34547  0.2895   2.520   1.740
   4.265   34401  0.2907   2.520   1.729
   4.247   34255  0.2919   2.519   1.719
   4.229   34110  0.2932   2.519   1.710
   4.211   33964  0.2944   2.518   1.701
   4.193   33818  0.2957   2.518   1.693
   4.175   33672  0.2970   2.516   1.685
   4.157   33527  0.2983   2.516   1.678
   4.139   33381  0.2996   2.515   1.671
   4.120   33235  0.3009   2.514   1.664
   4.102   33089  0.3022   2.514   1.658
   4.084   32944  0.3035   2.513   1.653
   4.066   32798  0.3049   2.513   1.647
   4.048   32652  0.3063   2.512   1.642
   4.030   32506  0.3076   2.512   1.638
   4.012   32360  0.3090   2.511   1.634
   3.994   32215  0.3104   2.510   1.630
   3.976   32069  0.3118   2.511   1.626
   3.958   31923  0.3133   2.510   1.622
   3.940   31777  0.3147   2.510   1.619
   3.922   31632  0.3161   2.510   1.617
   3.904   31486  0.3176   2.510   1.614
   3.886   31340  0.3191   2.510   1.612
   3.867   31194  0.3206   2.511   1.610
   3.849   31049  0.3221   2.511   1.609
   3.831   30903  0.3236   2.511   1.607
   3.813   30757  0.3251   2.511   1.606
   3.795   30611  0.3267   2.512   1.605
   3.777   30465  0.3282   2.512   1.606
   3.759   30320  0.3298   2.513   1.606
   3.741   30174  0.3314   2.514   1.606
   3.723   30028  0.3330   2.515   1.607
   3.705   29882  0.3346   2.517   1.608
   3.687   29737  0.3363   2.518   1.609
   3.669   29591  0.3379   2.520   1.611
   3.651   29445  0.3396   2.522   1.613
   3.633   29299  0.3413   2.525   1.615
   3.614   29154  0.3430   2.527   1.617
   3.596   29008  0.3447   2.530   1.619
   3.578   28862  0.3465   2.533   1.622
   3.560   28716  0.3482   2.536   1.625
   3.542   28570  0.3500   2.540   1.629
   3.524   28425  0.3518   2.544   1.632
   3.506   28279  0.3536   2.548   1.636
   3.488   28133  0.3555   2.553   1.640
   3.470   27987  0.3573   2.557   1.645
   3.452   27842  0.3592   2.563   1.649
   3.434   27696  0.3611   2.568   1.654
   3.416   27550  0.3630   2.574   1.659
   3.398   27404  0.3649   2.580   1.665
   3.380   27259  0.3669   2.587   1.670
   3.361   27113  0.3688   2.595   1.676
   3.343   26967  0.3708   2.603   1.682
   3.325   26821  0.3728   2.612   1.689
   3.307   26676  0.3749   2.621   1.696
   3.289   26530  0.3769   2.630   1.703
   3.271   26384  0.3790   2.641   1.710
   3.253   26238  0.3811   2.652   1.717
   3.235   26092  0.3833   2.664   1.725
   3.217   25947  0.3854   2.676   1.732
   3.199   25801  0.3876   2.691   1.741
   3.181   25655  0.3898   2.706   1.749
   3.163   25509  0.3920   2.723   1.758
   3.145   25364  0.3943   2.741   1.766
   3.127   25218  0.3965   2.761   1.774
   3.108   25072  0.3989   2.782   1.781
   3.090   24926  0.4012   2.806   1.788
   3.072   24781  0.4035   2.832   1.793
   3.054   24635  0.4059   2.861   1.795
   3.036   24489  0.4083   2.891   1.795
   3.018   24343  0.4108   2.922   1.790
   3.000   24197  0.4133   2.953   1.782
   2.982   24052  0.4158   2.983   1.770
   2.964   23906  0.4183   3.010   1.756
   2.946   23760  0.4209   3.034   1.740
   2.928   23614  0.4235   3.056   1.722
   2.910   23469  0.4261   3.075   1.703
   2.892   23323  0.4288   3.091   1.684
   2.873   23177  0.4315   3.105   1.666
   2.855   23031  0.4342   3.118   1.648
   2.837   22886  0.4370   3.129   1.631
   2.819   22740  0.4398   3.138   1.616
   2.801   22594  0.4426   3.146   1.602
   2.783   22448  0.4455   3.154   1.589
   2.765   22302  0.4484   3.161   1.576
   2.747   22157  0.4513   3.167   1.566
   2.729   22011  0.4543   3.174   1.555
   2.711   21865  0.4573   3.181   1.546
   2.693   21719  0.4604   3.187   1.539
   2.675   21574  0.4635   3.193   1.533
   2.657   21428  0.4667   3.201   1.527
   2.639   21282  0.4699   3.207   1.524
   2.620   21136  0.4731   3.216   1.520
   2.602   20991  0.4764   3.225   1.517
   2.584   20845  0.4797   3.236   1.515
   2.566   20699  0.4831   3.246   1.516
   2.548   20553  0.4865   3.259   1.517
   2.530   20407  0.4900   3.274   1.518
   2.512   20262  0.4935   3.290   1.522
   2.494   20116  0.4971   3.310   1.525
   2.476   19970  0.5007   3.333   1.530
   2.458   19824  0.5044   3.360   1.534
   2.440   19679  0.5082   3.393   1.537
   2.422   19533  0.5120   3.433   1.536
   2.404   19387  0.5158   3.479   1.529
   2.386   19241  0.5197   3.527   1.514
   2.367   19096  0.5237   3.576   1.487
   2.349   18950  0.5277   3.621   1.450
   2.331   18804  0.5318   3.658   1.406
   2.313   18658  0.5360   3.688   1.358
   2.295   18513  0.5402   3.709   1.309
   2.277   18367  0.5445   3.724   1.261
   2.259   18221  0.5488   3.733   1.213
   2.241   18075  0.5532   3.738   1.167
   2.223   17929  0.5577   3.739   1.125
   2.205   17784  0.5623   3.738   1.085
   2.187   17638  0.5670   3.734   1.047
   2.169   17492  0.5717   3.729   1.011
   2.151   17346  0.5765   3.722  0.9776
   2.133   17201  0.5814   3.714  0.9480
   2.114   17055  0.5863   3.706  0.9190
   2.096   16909  0.5914   3.696  0.8924
   2.078   16763  0.5965   3.688  0.8664
   2.060   16618  0.6018   3.678  0.8430
   2.042   16472  0.6071   3.669  0.8201
   2.024   16326  0.6125   3.659  0.7979
   2.006   16180  0.6180   3.649  0.7780
   1.988   16034  0.6237   3.641  0.7573
   1.970   15889  0.6294   3.631  0.7401
   1.952   15743  0.6352   3.621  0.7218
   1.934   15597  0.6411   3.612  0.7053
   1.916   15451  0.6472   3.603  0.6901
   1.898   15306  0.6534   3.594  0.6745
   1.880   15160  0.6596   3.584  0.6616
   1.861   15014  0.6660   3.576  0.6486
   1.843   14868  0.6726   3.566  0.6368
   1.825   14723  0.6792   3.558  0.6253
   1.807   14577  0.6860   3.550  0.6136
   1.789   14431  0.6930   3.541  0.6022
   1.771   14285  0.7000   3.534  0.5914
   1.753   14139  0.7072   3.527  0.5802
   1.735   13994  0.7146   3.520  0.5703
   1.717   13848  0.7221   3.514  0.5586
   1.699   13702  0.7298   3.508  0.5512
   1.681   13556  0.7377   3.500  0.5415
   1.663   13411  0.7457   3.498  0.5344
   1.645   13265  0.7539   3.491  0.5229
   1.627   13119  0.7622   3.484  0.5147
   1.608   12973  0.7708   3.478  0.5073
   1.590   12828  0.7796   3.473  0.5019
   1.572   12682  0.7885   3.465  0.4966
   1.554   12536  0.7977   3.462  0.4845
   1.536   12390  0.8071   3.451  0.4905
   1.518   12244  0.8167   3.446  0.4793
   1.500   12099  0.8265   3.442  0.4716
    (pg.   683); References     are     26,
   0.420    3388   2.952 -0.0001   0.108
   0.415    3347   2.987 -0.0001   0.108
   0.410    3307   3.024 -0.0001   0.107
   0.405    3267   3.061 -0.0001   0.106
   0.400    3226   3.100 -0.0001   0.106
   0.395    3186   3.139 -0.0001   0.105
   0.390    3146   3.179 -0.0001   0.104
   0.385    3105   3.220 -0.0001   0.103
   0.380    3065   3.263 -0.0001   0.102
   0.375    3025   3.306 -0.0001   0.100
   0.370    2984   3.351 -0.0001 0.991E-1
   0.365    2944   3.397 -0.0001 0.977E-1
   0.360    2904   3.444 -0.0001 0.962E-1
   0.355    2863   3.492 -0.0001 0.945E-1
   0.350    2823   3.542 -0.0001 0.927E-1
   0.345    2783   3.594 -0.0001 0.907E-1
   0.340    2742   3.646 -0.0001 0.886E-1
   0.335    2702   3.701 -0.0001 0.862E-1
   0.330    2662   3.757 -0.0001 0.836E-1
   0.325    2621   3.815 -0.0001 0.807E-1
   0.320    2581   3.874 -0.0001 0.775E-1
   0.315    2541   3.936 -0.0001 0.739E-1
   0.310    2500   3.999 -0.0001 0.698E-1
   0.305    2460   4.065 -0.0001 0.652E-1
   0.300    2420   4.133 -0.0001 0.598E-1
   0.295    2379   4.203 -0.0001 0.535E-1
   0.290    2339   4.275 -0.0001 0.458E-1
   0.285    2299   4.350 -0.0001 0.357E-1
   0.280    2258   4.428   3.480 0.241E-1
   0.275    2218   4.508   3.465 0.142E-1
   0.270    2178   4.592   3.453 0.830E-2
   0.265    2137   4.678   3.443 0.487E-2
   0.260    2097   4.768   3.434 0.286E-2
   0.255    2057   4.862   3.426 0.168E-2
   0.250    2016   4.959   3.419 0.987E-3
   0.245    1976   5.060   3.413 0.580E-3
   0.240    1936   5.166   3.407 0.341E-3
   0.235    1895   5.276   3.403 -0.0001
   0.230    1855   5.390   3.398 -0.0001
   0.225    1815   5.510   3.394 -0.0001
   0.220    1774   5.635   3.391 -0.0001
   0.215    1734   5.767   3.387 -0.0001
   0.210    1694   5.904   3.384 -0.0001
   0.205    1653   6.048   3.381 -0.0001
