;UO 
;UO Hg79Cd20.TeA:  Values of n and k for cubic mercury cadmium
;UO telluride (Hg0.795Cd0.205Te) from various references in HOCII
;UO (pg. 682).  References are 25, 31.  300K, n-type.
;UO 
;UO Copyright (c) 1995 the Optical Society of America.  Contains data
;UO from HANDBOOK OF OPTICAL CONSTANTS IN SOLIDS II edited by Edward D.
;UO Palik. Copyright (c) 1991 by Academic Press, Inc. Reproduced by
;UO permission of the publisher.
;UO ------------------------------------------------------------
;UO      eV   cm-1      um        n         k  
;UO ------------------------------------------------------------
;N  5
;L  Energy[eV]  Wavelength[cm-1]  Wavelength[um]  n  k  
   0.260    2097   4.768 -0.0001   0.134
   0.255    2057   4.862 -0.0001   0.133
   0.250    2016   4.959 -0.0001   0.131
   0.245    1976   5.060 -0.0001   0.130
   0.240    1936   5.166 -0.0001   0.128
   0.235    1895   5.276 -0.0001   0.126
   0.230    1855   5.390 -0.0001   0.123
   0.225    1815   5.510 -0.0001   0.121
   0.220    1774   5.635 -0.0001   0.117
   0.215    1734   5.767 -0.0001   0.114
   0.210    1694   5.904 -0.0001   0.110
   0.205    1653   6.048 -0.0001   0.105
   0.200    1613   6.199 -0.0001 0.992E-1
   0.195    1573   6.358 -0.0001 0.924E-1
   0.190    1533   6.525 -0.0001 0.843E-1
   0.185    1492   6.702 -0.0001 0.741E-1
   0.180    1452   6.888 -0.0001 0.607E-1
   0.175    1412   7.085 -0.0001 0.408E-1
   0.170    1371   7.293 -0.0001 0.324E-1
   0.165    1331   7.514 -0.0001 0.183E-1
   0.160    1291   7.749   3.610 0.104E-1
   0.155    1250   7.999   3.595 0.589E-2
   0.150    1210   8.265   3.583 0.334E-2
   0.145    1170   8.550   3.574 0.190E-2
   0.140    1129   8.856   3.567 0.108E-2
   0.135    1089   9.184   3.561 0.616E-3
   0.130    1049   9.537   3.555 -0.0001
   0.125    1008   9.918   3.550 -0.0001
   0.120   967.9   10.33   3.546 -0.0001
   0.115   927.6   10.78   3.542 -0.0001
   0.110   887.2   11.27   3.537 -0.0001
   0.105   846.9   11.81   3.533 -0.0001
   0.100   806.6   12.40   3.529 -0.0001
   0.095   766.3   13.05   3.525 -0.0001
   0.090   725.9   13.78   3.520 -0.0001
   0.085   685.6   14.59   3.515 -0.0001
   0.080   645.3   15.50   3.509 -0.0001
   0.075   604.9   16.53   3.502 -0.0001
   0.070   564.6   17.71   3.494 -0.0001
   0.065   524.3   19.07   3.483 -0.0001
   0.060   483.9   20.66   3.471 -0.0001
   0.055   443.6   22.54   3.454 -0.0001
   0.050   403.3   24.80   3.431 -0.0001
