;UO 
;UO InAs.ASC: Values of n and k for cubic indium arsenide from various
;UO references in HOCI (pg. 482). References are 1, 2, 4, 6, 7, 8, 14. 
;UO 
;UO From HANDBOOK OF OPTICAL CONSTANTS IN SOLIDS edited by Edward D.
;UO Palik. Copyright (c) 1985 by Academic Press, Inc. Reproduced by
;UO permission of the publisher.
;UO ---------------------------------------------------------------
;UO     eV      cm-1        um          n           k 
;UO ---------------------------------------------------------------	
;N  5
;L  Energy[eV]  Wavelength[cm-1]  Wavelength[um]  n  k  
      25  201640 0.04959   1.139   0.168
      24  193570 0.05166   1.135   0.195
      23  185510 0.05391   1.135   0.207
      22  177440 0.05636   1.133   0.215
      21  169380 0.05904   1.131   0.222
      20  161310 0.06199   1.125   0.225
    19.5  157280 0.06358   1.120   0.224
    18.5  149210 0.06702   1.110   0.215
    17.5  141150 0.07085   1.047   0.189
      16  129050 0.07749   0.948   0.272
      15  120980 0.08266   0.894   0.336
      14  112920 0.08856   0.829   0.426
      13  104850 0.09537   0.766   0.563
      12   96786  0.1033   0.745   0.727
    11.5   92753  0.1078   0.751   0.830
      11   88721  0.1127   0.775   0.905
      10   80655  0.1240   0.835   1.071
     9.1   73396  0.1362   0.890   1.260
     8.1   65331  0.1531   0.967   1.552
     7.2   58072  0.1722   1.184   1.889
     6.9   55652  0.1797   1.332   1.998
     6.6   53232  0.1879   1.483   2.020
    6.35   51216  0.1953   1.583   2.120
     6.0   48390  0.2066   1.434   2.112
    5.94   47910  0.2087   1.401   2.085
     5.9   47590  0.2101   1.383   2.084
    5.84   47100  0.2123   1.350   2.089
     5.8   46780  0.2138   1.333   2.102
    5.74   46300  0.2160   1.306   2.135
     5.7   45970  0.2175   1.293   2.163
    5.64   45490  0.2198   1.281   2.212
     5.6   45170  0.2214   1.276   2.248
    5.54   44680  0.2238   1.277   2.304
     5.5   44360  0.2254   1.282   2.344
     5.5   44360  0.2254   1.765   2.202
    5.44   43880  0.2279   1.297   2.407
     5.4   43550  0.2296   1.312   2.449
    5.34   43070  0.2322   1.341   2.514
     5.3   42750  0.2339   1.366   2.555
    5.24   42260  0.2366   1.408   2.612
     5.2   41940  0.2384   1.436   2.646
    5.14   41460  0.2412   1.469   2.694
     5.1   41130  0.2431   1.484   2.732
    5.04   40650  0.2460   1.505   2.807
     5.0   40330  0.2480   1.524   2.871
    4.98   40170  0.2490   1.535   2.907
    4.96   40000  0.2500   1.550   2.946
    4.94   39840  0.2510   1.566   2.988
    4.92   39680  0.2520   1.586   3.034
     4.9   39520  0.2530   1.608   3.081
    4.88   39360  0.2541   1.635   3.129
    4.86   39200  0.2551   1.668   3.182
    4.84   39040  0.2562   1.705   3.236
    4.82   38880  0.2572   1.751   3.291
     4.8   38710  0.2583   1.803   3.348
    4.78   38550  0.2594   1.866   3.404
    4.76   38390  0.2605   1.938   3.456
    4.74   38230  0.2616   2.019   3.504
    4.72   38070  0.2627   2.108   3.545
     4.7   37910  0.2638   2.204   3.575
    4.68   37750  0.2649   2.305   3.595
    4.66   37590  0.2661   2.407   3.604
    4.64   37420  0.2672   2.510   3.604
    4.62   37260  0.2684   2.609   3.596
     4.6   37100  0.2695   2.705   3.581
    4.58   36940  0.2707   2.799   3.564
    4.56   36780  0.2719   2.894   3.543
    4.54   36620  0.2731   2.990   3.519
    4.52   36460  0.2743   3.091   3.487
     4.5   36290  0.2755   3.194   3.445
    4.48   36130  0.2768   3.298   3.389
    4.46   35970  0.2780   3.399   3.320
    4.44   35810  0.2792   3.490   3.239
    4.42   35650  0.2805   3.573   3.146
     4.4   35080  0.2818   3.644   3.042
    4.38   35330  0.2831   3.701   2.931
    4.36   35170  0.2844   3.742   2.814
    4.34   35000  0.2857   3.765   2.697
    4.32   34840  0.2870   3.770   2.584
     4.3   34680  0.2883   3.761   2.478
    4.28   34520  0.2897   3.742   2.382
    4.26   34360  0.2910   3.715   2.297
    4.24   34200  0.2924   3.684   2.222
    4.22   34040  0.2938   3.650   2.156
     4.2   33880  0.2952   3.615   2.099
    4.18   33710  0.2966   3.580   2.049
    4.16   33550  0.2980   3.545   2.005
    4.14   33390  0.2995   3.512   1.967
    4.12   33230  0.3009   3.480   1.933
     4.1   33070  0.3024   3.449   1.903
    4.08   32910  0.3039   3.419   1.877
    4.06   32750  0.3054   3.391   1.854
    4.04   32580  0.3069   3.364   1.833
    4.02   32420  0.3084   3.338   1.815
     4.0   32260  0.3100   3.313   1.799
    3.94   31780  0.3147   3.246   1.761
     3.9   31460  0.3179   3.208   1.743
    3.84   30970  0.3229   3.158   1.726
     3.8   30650  0.3263   3.129   1.719
    3.74   30160  0.3315   3.091   1.714
     3.7   29840  0.3351   3.069   1.715
    3.64   29360  0.3406   3.044   1.721
     3.6   29040  0.3444   3.030   1.728
    3.54   28550  0.3502   3.015   1.742
     3.5   28230  0.3542   3.008   1.754
    3.44   27750  0.3604   3.003   1.774
     3.4   27420  0.3647   3.004   1.790
    3.34   26940  0.3712   3.010   1.817
     3.3   26620  0.3757   3.018   1.836
    3.24   26130  0.3827   3.035   1.868
     3.2   25810  0.3875   3.051   1.891
    3.14   25330  0.3949   3.083   1.929
     3.1   25000  0.4000   3.108   1.957
    3.04   24520  0.4078   3.157   2.001
     3.0   24200  0.4133   3.197   2.034
    2.98   24040  0.4161   3.220   2.051
    2.96   23870  0.4189   3.244   2.069
    2.94   23710  0.4217   3.272   2.088
    2.92   23550  0.4246   3.302   2.108
     2.9   23390  0.4275   3.337   2.129
    2.88   23230  0.4305   3.377   2.151
    2.86   23070  0.4335   3.425   2.174
    2.84   22910  0.4366   3.482   2.194
    2.82   22740  0.4397   3.550   2.207
     2.8   22580  0.4428   3.626   2.208
    2.78   22420  0.4460   3.705   2.189
    2.76   22260  0.4492   3.776   2.153
    2.74   22100  0.4525   3.834   2.108
    2.72   21940  0.4558   3.878   2.060
     2.7   21780  0.4592   3.911   2.016
    2.68   21620  0.4626   3.935   1.977
    2.66   21450  0.4661   3.956   1.943
    2.64   21290  0.4696   3.976   1.917
    2.62   21130  0.4732   3.996   1.898
     2.6   20970  0.4769   4.021   1.885
    2.58   20810  0.4806   4.052   1.881
    2.56   20650  0.4843   4.098   1.882
    2.54   20490  0.4881   4.168   1.879
    2.52   20330  0.4920   4.265   1.855
     2.5   20160  0.4959   4.364   1.786
    2.48   20000  0.4999   4.437   1.686
    2.46   19840  0.5040   4.476   1.575
    2.44   19680  0.5081   4.489   1.466
    2.42   19520  0.5123   4.484   1.368
     2.4   19360  0.5166   4.466   1.283
    2.38   19200  0.5209   4.443   1.209
    2.36   19030  0.5254   4.417   1.144
    2.34   18870  0.5299   4.389   1.086
    2.32   18710  0.5344   4.360   1.035
     2.3   18550  0.5391   4.331   0.991
    2.28   18390  0.5438   4.303   0.951
    2.26   18230  0.5486   4.276   0.914
    2.24   18070  0.5535   4.249   0.880
    2.22   17910  0.5585   4.224   0.850
     2.2   17740  0.5636   4.199   0.822
    2.18   17580  0.5687   4.176   0.794
    2.16   17420  0.5740   4.153   0.771
    2.14   17260  0.5794   4.131   0.750
    2.12   17100  0.5848   4.109   0.730
     2.1   16940  0.5904   4.088   0.712
    2.08   16780  0.5961   4.068   0.694
    2.06   16610  0.6019   4.050   0.677
    2.04   16450  0.6078   4.031   0.661
    2.02   16290  0.6138   4.012   0.648
     2.0   16130  0.6199   3.995   0.634
    1.98   15970  0.6262   3.979   0.619
    1.96   15810  0.6326   3.962   0.606
    1.94   15650  0.6391   3.947   0.594
    1.92   15490  0.6458   3.932   0.582
     1.9   15320  0.6526   3.917   0.572
    1.88   15160  0.6595   3.902   0.564
    1.86   15000  0.6666   3.889   0.554
    1.84   14840  0.6738   3.875   0.547
    1.82   14680  0.6812   3.862   0.539
     1.8   14520  0.6888   3.851   0.530
    1.78   14360  0.6965   3.839   0.523
    1.76   14200  0.7045   3.828   0.515
    1.74   14030  0.7126   3.817   0.508
    1.72   13870  0.7208   3.807   0.500
     1.7   13710  0.7293   3.798   0.493
    1.68   13550  0.7380   3.788   0.486
    1.66   13390  0.7469   3.780   0.478
    1.64   13230  0.7560   3.770   0.475
    1.62   13070  0.7653   3.761   0.473
     1.6   12900  0.7749   3.755   0.463
    1.58   12740  0.7847   3.746   0.457
    1.56   12580  0.7948   3.735   0.458
    1.54   12420  0.8051   3.729   0.448
    1.52   12260  0.8157   3.720   0.444
     1.5   12100  0.8266   3.714   0.432
    0.85    6856   1.459 -0.0001   0.232
    0.80    6452   1.550 -0.0001   0.210
    0.75    6049   1.653 -0.0001   0.191
    0.70    5646   1.771 -0.0001   0.183
    0.65    5243   1.907 -0.0001   0.167
    0.60    4839   2.066 -0.0001   0.161
    0.55    4436   2.254 -0.0001   0.149
    0.50    4033   2.480 -0.0001   0.136
    0.45    3629   2.755 -0.0001   0.120
    0.40    3226   3.100 -0.0001 9.62E-2
    0.37    2984   3.351 -0.0001  6.4E-2
   0.365    2944   3.397 -0.0001 5.13E-2
    0.36    2904   3.444 -0.0001 3.70E-2
   0.355    2863   3.493 -0.0001 2.17E-2
    0.35    2823   3.542   3.608 9.58E-3
   0.345    2783   3.594 -0.0001 5.14E-3
    0.34    2742   3.647   3.556 2.29E-3
   0.335    2702   3.701 -0.0001 1.12E-3
    0.33    2662   3.757   3.530 5.08E-4
   0.325    2621   3.815 -0.0001 2.52E-4
    0.32    2581   3.875   3.512 1.23E-4
 0.05641     455   21.98 -0.0001 1.92E-3
 0.05579     450   22.22 -0.0001 3.36E-3
 0.05517     445   22.47 -0.0001 8.23E-3
 0.05455     440   22.73 -0.0001 5.61E-3
 0.05393     435   22.99 -0.0001 5.85E-3
 0.05331     430   23.26 -0.0001 7.96E-3
 0.05269     425   23.53 -0.0001 7.49E-3
 0.05207     420   23.81 -0.0001 7.20E-3
 0.05145     415   24.10 -0.0001 4.60E-3
 0.05083     410   24.39   3.275 3.88E-3
 0.05021     405   24.69 -0.0001 2.55E-3
 0.04711     380   26.32 -0.0001 2.72E-3
 0.04649     375   26.67 -0.0001 3.40E-3
 0.04587     370   27.03 -0.0001 4.73E-3
 0.04525     365   27.38 -0.0001 6.54E-3
 0.04463     360   27.78 -0.0001 7.07E-3
 0.04401     355   28.17 -0.0001 6.73E-3
 0.04339     350   28.57   3.182 5.46E-3
 0.04277     345   28.99 -0.0001 5.07E-3
 0.04215     340   29.41 -0.0001 5.15E-3
 0.04154     335   29.85 -0.0001 5.46E-3
 0.04092     330   30.30 -0.0001 3.38E-3
 0.03658     295   33.90 -0.0001 3.24E-3
 0.03596     290   34.48   2.912 4.94E-3
 0.03596     290   34.48    3.18    4E-2
 0.03534     285   35.09    3.10    6E-2
 0.03534     285   35.09 -0.0001 7.54E-3
 0.03472     280   35.71   2.808 1.31E-2
 0.03472     280   35.71    3.00    0.17
 0.03410     275   36.36    2.93    0.27
 0.03410     275   36.36 -0.0001 2.60E-2
 0.03348     270   37.04   2.658 5.45E-2
 0.03348     270   37.04    2.92    0.39
 0.03348     270   37.04 -0.0001  3.7E-2
 0.03286     265   37.74    2.92    0.40
 0.03286     265   37.74 -0.0001 5.11E-2
 0.03224     260   38.46   2.418 4.74E-2
 0.03224     260   38.46    2.73    0.40
 0.03224     260   38.46 -0.0001  6.3E-2
 0.03199     258   38.76   2.352  7.1E-2
 0.03174     256   39.06   2.277  8.1E-2
 0.03162     255   39.22    2.37    0.50
 0.03162     255   39.22 -0.0001 5.62E-2
 0.03149     254   39.37   2.190  9.4E-2
 0.03124     252   39.68   2.089    0.11
 0.03100     250   40.00   1.970 6.37E-2
 0.03100     250   40.00    2.03    0.83
 0.03100     250   40.00 -0.0001    0.13
 0.03075     248   40.32   1.827    0.16
 0.03075     248   40.32    1.88    0.97
 0.03050     246   40.65    1.60     1.1
 0.03050     246   40.65   1.649    0.21
 0.03025     244   40.98   1.424    0.28
 0.03025     244   40.98    1.24    1.44
 0.03000     242   41.32    0.98    2.02
 0.03000     242   41.32   1.128    0.41
 0.02976     240   41.67   0.779    0.71
 0.02976     240   41.67    0.92    2.77
 0.02951     238   42.02    1.08    3.50
 0.02951     238   42.02   0.563    1.19
 0.02926     236   42.37   0.493    1.67
 0.02926     236   42.37    1.27    4.20
 0.02901     234   42.74    2.08    4.87
 0.02901     234   42.74   0.485    2.14
 0.02876     232   43.10   0.514    2.62
 0.02876     232   43.10    2.79    5.17
 0.02852     230   43.48    3.30    5.36
 0.02852     230   43.48   0.578    3.15
 0.02827     228   43.86   0.690    3.76
 0.02827     228   43.86    3.85    5.60
 0.02802     226   44.25    4.35    5.83
 0.02802     226   44.25   0.882    4.50
 0.02777     224   44.64    1.24    5.45
 0.02777     224   44.64    4.90    6.12
 0.02765     222   44.84    5.90    6.53
 0.02765     222   44.84    1.99    6.76
 0.02728     220   45.45    3.99    8.44
 0.02728     220   45.45    7.50    6.40
 0.02703     218   45.87    8.89    5.05
 0.02703     218   45.87    8.58    7.87
 0.02678     216   46.30    9.16    3.53
 0.02678     216   46.30    9.24    3.50
 0.02653     214   46.73    9.13    2.40
 0.02653     214   46.73    8.32    1.63
 0.02628     212   47.17    7.33    0.92
 0.02628     212   47.17    9.13    1.53
 0.02604     210   47.62    8.32    1.04
 0.02604     210   47.62    6.67    0.60
 0.02542     205   48.78    5.72    0.27
 0.02542     205   48.78    7.48    0.48
 0.02480     200   50.00    6.91    0.30
 0.02480     200   50.00    5.22    0.16
 0.02418     195   51.28    6.42    8E-2
 0.02356     190   52.63    6.14    6E-2
 0.02294     185   54.05    5.97    6E-2
 0.02232     180   55.56    5.64    0.17
 0.02232     180   55.56    4.41  4.2E-2
 0.02170     175   57.14    5.58    0.20
 0.02108     170   58.82    5.41    0.32
 0.02046     165   60.61    5.31    0.40
 0.01984     160   62.50    5.27    0.41
 0.01984     160   62.50    4.13  1.9E-2
 0.01922     155   64.52    5.30    0.51
 0.01860     150   66.67    5.27    0.51
 0.01798     145   68.97    5.26    0.60
 0.01736     140   71.43    5.30    0.71
 0.01736     140   71.43    3.99  1.1E-2
 0.01488     120   83.33    3.91  6.6E-3
 0.01240     100   100.0    3.85  4.3E-3
 0.009919      80   125.0   3.817 -0.0001
 0.007439      60   166.7   3.793 -0.0001
 0.004959      40   250.0   3.778 -0.0001
 0.002480      20   500.0   3.769 -0.0001
 0.001240      10    1000   3.766 -0.0001
