;UO 
;UO InSb.ASC: Values of n and k for cubic indium antimonide from
;UO various references in HOCI (pg. 495). References are 1, 2, 4,
;UO 5, 8, 9, 10. 
;UO 
;UO From HANDBOOK OF OPTICAL CONSTANTS IN SOLIDS edited by Edward D.
;UO Palik. Copyright (c) 1985 by Academic Press, Inc. Reproduced by
;UO permission of the publisher.
;UO -------------------------------------------------------------
;UO      eV     cm-1      um           n            k 
;UO -------------------------------------------------------------	
;N  5
;L  Energy[eV]  Wavelength[cm-1]  Wavelength[um]  n  k  
     155 1250200 0.007999 -0.0001 4.77E-3
     150 1209800 0.008266 -0.0001 4.60E-3
     145 1169500 0.008551 -0.0001 4.83E-3
     140 1129200 0.008856 -0.0001 5.28E-3
     135 1088800 0.009184 -0.0001 6.13E-3
     130 1048500 0.009537 -0.0001 7.59E-3
     125 1008200 0.009919 -0.0001 9.70E-3
     120  967860 0.01033 -0.0001 1.25E-2
     115  927530 0.01078 -0.0001 1.59E-2
     110  887210 0.01127 -0.0001 2.06E-2
     105  846880 0.01181 -0.0001 2.63E-2
     100  806550 0.01240 -0.0001 3.25E-2
      95  766220 0.01305 -0.0001 3.79E-2
      90  725900 0.01378 -0.0001 4.45E-2
      85  685570 0.01459 -0.0001 5.02E-2
      80  645240 0.01550 -0.0001 5.77E-2
      75  604910 0.01653 -0.0001 6.60E-2
      70  564590 0.01771 -0.0001 7.45E-2
      65  524260 0.01907 -0.0001 7.46E-2
      60  483930 0.02066 -0.0001 7.30E-2
      55  443600 0.02254 -0.0001 7.50E-2
      50  403280 0.02480 -0.0001 7.10E-2
      45  362950 0.02755 -0.0001 6.51E-2
      40  322620 0.03100 -0.0001 6.51E-2
      38  306490 0.03263 -0.0001 6.75E-2
      37  298420 0.03351 -0.0001 7.06E-2
      36  290360 0.03444 -0.0001 7.67E-2
      35  282290 0.03542 -0.0001 8.51E-2
      34  274230 0.03647 -0.0001 8.56E-2
      33  266160 0.03757 -0.0001 8.37E-2
      32  258100 0.03875 -0.0001 7.09E-2
      31  250030 0.04000 -0.0001 7.16E-2
      30  241970 0.04133 -0.0001 7.23E-2
      29  233900 0.04275 -0.0001 7.55E-2
      28  225830 0.04428 -0.0001 7.89E-2
      27  217770 0.04592 -0.0001 8.11E-2
      26  209700 0.04769 -0.0001 8.34E-2
      25  201640 0.04959    1.15 8.88E-2
      25  201640 0.04959 -0.0001    0.15
      24  193570 0.05166    1.15 9.37E-2
      24  193570 0.05166 -0.0001    0.18
      23  185510 0.05391    1.15   0.105
      23  185510 0.05391 -0.0001    0.19
      22  177440 0.05636    1.16   0.125
      22  177440 0.05636 -0.0001    0.20
      21  169380 0.05904    1.17   0.145
      21  169380 0.05904 -0.0001    0.21
      20  161310 0.06199    1.17   0.160
      20  161310 0.06199 -0.0001    0.21
    19.5  157280 0.06358 -0.0001   0.163
      19  153240 0.06526    1.18   0.173
      19  153240 0.06526 -0.0001    0.20
    18.5  149210 0.06702 -0.0001   0.178
      18  145180 0.06888    1.15   0.178
      18  145180 0.06888 -0.0001    0.18
    17.5  141150 0.07085 -0.0001   0.180
      17  137110 0.07293    1.11   0.181
      17  137110 0.07293 -0.0001    0.16
    16.5  133080 0.07514 -0.0001   0.191
      16  129050 0.07749 -0.0001   0.205
    15.5  125020 0.07999    1.02    0.17
      15  120980 0.08266    0.97   0.230
      15  120980 0.08266 -0.0001    0.19
      14  112920 0.08856    0.88   0.269
      14  112920 0.08856 -0.0001    0.26
      13  104850 0.09537    0.80    0.37
      12   96790  0.1033    0.75    0.51
      11   88720  0.1127    0.72    0.69
      10   80655  0.1240    0.74    0.88
       9   72590  0.1378    0.80    1.08
       8   64520  0.1550    0.88    1.32
     7.6   61300  0.1631    0.94    1.41
     6.8   54850  0.1823    1.06    1.61
     6.0   48390  0.2066    1.23    1.91
     6.0   48390  0.2066   0.861   2.139
    5.94   47910  0.2087   0.900   2.180
    5.90   47590  0.2101   0.922   2.185
    5.84   47100  0.2123   0.951   2.204
    5.80   46780  0.2138   0.969   2.210
    5.74   46300  0.2160   0.992   2.227
    5.70   45970  0.2175   1.000   2.235
    5.70   45970  0.2175    1.36    1.97
    5.64   45490  0.2198   1.016   2.257
    5.60   45170  0.2214   1.025   2.275
    5.54   44680  0.2238   1.042   2.307
    5.50   44360  0.2254   1.057   2.333
    5.44   43880  0.2279   1.088   2.369
    5.40   43550  0.2296   1.116   2.394
    5.34   43070  0.2322   1.161   2.424
    5.30   42750  0.2339   1.194   2.435
    5.24   42260  0.2366   1.242   2.446
    5.20   41940  0.2384   1.270   2.444
    5.14   41460  0.2412   1.301   2.435
    5.10   41130  0.2431   1.309   2.430
    5.04   40650  0.2460   1.311   2.431
    5.00   40330  0.2480   1.307   2.441
    4.94   39840  0.2510   1.301   2.470
    4.90   39520  0.2530   1.301   2.495
    4.84   39040  0.2562   1.306   2.542
    4.80   38710  0.2583   1.312   2.576
    4.74   38230  0.2616   1.328   2.630
    4.70   37910  0.2638   1.341   2.669
    4.64   37420  0.2672   1.366   2.732
    4.60   37100  0.2695   1.385   2.776
    4.54   36620  0.2731   1.419   2.845
    4.50   36290  0.2755   1.443   2.894
    4.44   35810  0.2792   1.484   2.975
    4.40   35490  0.2818   1.515   3.034
    4.34   35000  0.2857   1.571   3.134
    4.30   34680  0.2883   1.618   3.209
    4.24   34200  0.2924   1.708   3.337
    4.20   33880  0.2952   1.791   3.433
    4.14   33390  0.2995   1.966   3.582
    4.10   33070  0.3024   2.127   3.666
    4.04   32580  0.3069   2.425   3.720
    4.00   32260  0.3100   2.632   3.694
    3.94   31780  0.3147   2.902   3.581
    3.90   31460  0.3179   3.044   3.479
    3.84   30970  0.3229   3.204   3.314
    3.80   30650  0.3263   3.287   3.204
    3.74   30160  0.3315   3.383   3.039
    3.70   29840  0.3351   3.427   2.933
    3.64   29360  0.3406   3.468   2.789
    3.60   29040  0.3444   3.485   2.705
    3.54   28550  0.3502   3.504   2.589
    3.50   28230  0.3542   3.511   2.517
    3.44   27750  0.3604   3.515   2.424
    3.40   27420  0.3647   3.520   2.369
    3.34   26940  0.3712   3.528   2.280
    3.30   26620  0.3757   3.525   2.217
    3.24   26130  0.3827   3.502   2.137
    3.20   25810  0.3875   3.482   2.093
    3.14   25330  0.3949   3.445   2.038
    3.10   25000  0.4000   3.419   2.015
    3.04   24520  0.4078   3.384   1.997
    3.00   24200  0.4133   3.366   1.994
    2.94   23710  0.4217   3.348   1.997
    2.90   23390  0.4275   3.342   2.004
    2.84   22910  0.4366   3.340   2.021
    2.80   22580  0.4428   3.345   2.036
    2.74   22100  0.4525   3.360   2.062
    2.70   21780  0.4592   3.377   2.083
    2.64   21290  0.4696   3.413   2.119
    2.60   20970  0.4769   3.447   2.145
    2.54   20490  0.4881   3.512   2.188
    2.50   20160  0.4959   3.570   2.221
    2.48   20000  0.4999   3.605   2.238
    2.46   19840  0.5040   3.646   2.254
    2.44   19680  0.5081   3.694   2.271
    2.42   19520  0.5123   3.752   2.283
    2.40   19360  0.5166   3.822   2.287
    2.38   19200  0.5209   3.900   2.274
    2.36   19030  0.5254   3.976   2.239
    2.34   18870  0.5299   4.040   2.183
    2.32   18710  0.5344   4.084   2.121
    2.30   18550  0.5391   4.111   2.060
    2.28   18390  0.5438   4.126   2.005
    2.26   18230  0.5486   4.133   1.957
    2.24   18070  0.5535   4.136   1.915
    2.22   17910  0.5585   4.136   1.880
    2.20   17740  0.5636   4.135   1.850
    2.18   17580  0.5687   4.134   1.826
    2.16   17420  0.5740   4.132   1.806
    2.14   17260  0.5794   4.132   1.790
    2.12   17100  0.5848   4.133   1.779
    2.10   16940  0.5904   4.136   1.770
    2.08   16780  0.5961   4.142   1.765
    2.06   16610  0.6019   4.149   1.763
    2.04   16450  0.6078   4.161   1.763
    2.02   16290  0.6138   4.175   1.767
    2.00   16130  0.6199   4.194   1.773
    1.98   15970  0.6262   4.218   1.784
    1.96   15810  0.6326   4.249   1.799
    1.94   15650  0.6391   4.290   1.818
    1.92   15490  0.6458   4.347   1.844
    1.90   15320  0.6526   4.433   1.873
    1.88   15160  0.6595   4.566   1.879
    1.86   15000  0.6666   4.723   1.816
    1.84   14840  0.6738   4.841   1.685
    1.82   14680  0.6812   4.898   1.534
    1.80   14520  0.6888   4.909   1.396
    1.80   14520  0.6888    5.13    1.37
    1.78   14360  0.6965   4.894   1.275
    1.76   14200  0.7045   4.867   1.171
    1.74   14030  0.7126   4.830   1.085
    1.72   13870  0.7208   4.793   1.010
    1.70   13710  0.7293   4.754   0.949
    1.68   13550  0.7380   4.712   0.897
    1.66   13390  0.7469   4.675   0.848
    1.64   13230  0.7560   4.637   0.808
    1.62   13070  0.7653   4.602   0.776
    1.60   12900  0.7749   4.568   0.749
    1.60   12900  0.7749    4.72    0.60
    1.58   12740  0.7847   4.534   0.723
    1.56   12580  0.7948   4.501   0.701
    1.54   12420  0.8051   4.473   0.675
    1.52   12260  0.8157   4.442   0.659
    1.50   12100  0.8266   4.418   0.643
     1.4   11290  0.8856    4.40    0.40
     1.2    9679   1.033    4.24    0.32
     1.0    8065   1.240    4.15    0.26
     0.8    6452   1.550    4.08    0.20
  0.7749    6250     1.6 -0.0001    0.18
  0.6888    5556     1.8 -0.0001    0.17
  0.6199    5000     2.0 -0.0001    0.17
     0.6    4839   2.066    4.03 -0.0001
  0.4959    4000     2.5 -0.0001    0.15
  0.4133    3333     3.0 -0.0001    0.13
  0.3542    2857     3.5 -0.0001    0.12
  0.3100    2500     4.0 -0.0001    0.11
  0.2755    2222     4.5 -0.0001    0.10
  0.2480    2000     5.0    4.14  9.1E-2
  0.2254    1818     5.5    4.15 -0.0001
  0.2066    1667     6.0    4.19  7.4E-2
  0.2033    1639     6.1 -0.0001  7.2E-2
  0.2000    1613     6.2 -0.0001  7.0E-2
  0.1968    1587     6.3 -0.0001  6.8E-2
  0.1937    1563     6.4 -0.0001  6.6E-2
  0.1907    1538     6.5    4.30  6.3E-2
  0.1879    1515     6.6 -0.0001  5.9E-2
  0.1851    1493     6.7 -0.0001  5.5E-2
  0.1823    1471     6.8 -0.0001  4.9E-2
  0.1797    1449     6.9 -0.0001  3.7E-2
  0.1771    1429     7.0    4.37  2.8E-2
   0.175    1411   7.085 -0.0001 1.46E-2
  0.1722    1389     7.2 -0.0001  9.2E-3
   0.170    1371   7.293 -0.0001 5.68E-3
  0.1675    1351     7.4 -0.0001  3.5E-3
  0.1653    1333     7.5    4.18  2.7E-3
   0.165    1331  7.5144 -0.0001 2.63E-3
  0.1631    1316     7.6 -0.0001  1.3E-3
   0.160    1290   7.749 -0.0001 1.57E-3
  0.1575    1270    7.87   4.001 -0.0001
   0.155  1250.2  7.9990 -0.0001 1.18E-3
 0.15498    1250     8.0   3.995 -0.0001
   0.150    1210   8.266 -0.0001 9.86E-4
   0.145    1169   8.551 -0.0001 9.52E-4
   0.140    1129   8.856 -0.0001 9.15E-4
  0.1376    1110    9.01   3.967 -0.0001
   0.135    1089   9.184 -0.0001 9.13E-4
   0.130    1049   9.537 -0.0001 9.10E-4
  0.1240    1000   10.00   3.938 -0.0001
  0.1232   994.0   10.06   3.953 -0.0001
  0.1126   908.3   11.01   3.937 -0.0001
  0.1116     900   11.11   3.933 -0.0001
  0.1028   829.2   12.06   3.920 -0.0001
 0.09919     800   12.50   3.926 -0.0001
 0.09552   770.4   12.98   3.912 -0.0001
 0.08920   719.4   13.90   3.902 -0.0001
 0.08679     700   14.29   3.915 -0.0001
 0.08194   660.9   15.13   3.881 -0.0001
 0.07852   633.3   15.79   3.873 -0.0001
 0.07439     600   16.67   3.898 -0.0001
 0.07310   589.6   16.96   3.866 -0.0001
 0.06946   560.2   17.85   3.850 -0.0001
 0.06577   530.5   18.85   3.843 -0.0001
 0.06205   500.5   19.98   3.826 -0.0001
 0.06199     500   20.00   3.869  2.0E-3
 0.05862   472.8   21.15   3.814 -0.0001
 0.05585   450.5   22.20   3.805 -0.0001
 0.04959   400.0   25.00    3.78  5.1E-3
 0.04959   400.0   25.00   3.811 -0.0001
 0.04769   384.6   26.00    3.74  7.5E-3
 0.04592   370.4    27.0    3.66  9.7E-3
 0.04463     360   27.78   3.770 -0.0001
 0.04428   357.1    28.0    3.56  1.1E-2
 0.04275   344.8    29.0    3.50  1.0E-2
 0.04215     340   29.41   3.743 -0.0001
 0.04133   333.3    30.0    3.47  1.0E-2
 0.04000   322.6    31.0    3.44  1.0E-2
 0.03968     320   31.25   3.708 -0.0001
 0.03875   312.5    32.0    3.39  1.0E-2
 0.03757   303.0    33.0    3.34  1.1E-2
 0.03720     300   33.33   3.662 7.84E-3
 0.03647   294.1    34.0    3.30  1.2E-2
 0.03596     290   34.48    3.63 8.96E-3
 0.03542   285.7    35.0    3.25  1.4E-2
 0.03472     280   35.71    3.60 1.03E-2
 0.03348     270   37.04    3.56 1.21E-2
 0.03224     260   38.46    3.51 1.44E-2
 0.03100     250   40.00    2.98  2.6E-2
 0.03100     250   40.00    3.45 2.75E-2
 0.02976     240   41.67    3.37 2.20E-2
 0.02914     235   42.55    3.32 2.51E-2
 0.02852     230   43.48    3.26 2.91E-2
 0.02790     225   44.44    3.18 3.44E-2
 0.02755   222.2    45.0    2.57  5.4E-2
 0.02728     220   45.45    3.09 4.16E-2
 0.02666     215   46.51    2.97 5.23E-2
 0.02604     210   47.62    2.82 6.92E-2
 0.02542     205   48.78    2.59  9.93E-
 0.02480     200   50.00    2.22   0.165
 0.02455     198   50.51    2.00   0.217
 0.02430     196   51.02    1.69   0.311
 0.02405     194   51.55    1.25   0.525
 0.02393     193   51.81   0.989   0.753
 0.02380     192   52.08   0.776    1.10
 0.02368     191   52.36   0.663    1.49
 0.02356     190   52.63   0.618    1.88
 0.02343     189   52.91   0.611    2.27
 0.02331     188   53.19   0.632    2.67
 0.02318     187   53.48   0.680    3.10
 0.02306     186   53.76   0.760    3.57
 0.02294     185   54.05   0.884    4.10
 0.02281     184   54.35    1.08    4.73
 0.02269     183   54.64    1.39    5.48
 0.02256     182   54.95    1.95    6.43
 0.02244     181   55.25    3.05    7.59
 0.02232     180   55.56    5.34    8.56
 0.02219     179   55.87    8.68    7.34
 0.02207     178   56.18    9.61    4.20
 0.02194     177   56.50    8.82    2.31
 0.02182     176   56.82    7.97    1.42
 0.02170     175   57.14    7.32   0.963
 0.02157     174   57.47    6.82   0.699
 0.02145     173   57.80    6.44   0.534
 0.02132     172   58.14    6.14   0.424
 0.02120     171   58.48    5.89   0.347
 0.02108     170   58.82    5.69   0.291
 0.02083     168   59.52    5.37   0.216
 0.02058     166   60.24    5.13   0.170
 0.02033     164   60.98    4.94   0.140
 0.02009     162   61.73    4.79   0.119
 0.01984     160   62.50    4.66   0.105
 0.01922     155   64.52    4.42 8.38E-2
 0.01860     150   66.67    4.24 7.43E-2
 0.01798     145   68.97    4.09 7.10E-2
 0.01736     140   71.43    3.96 7.15E-2
 0.01674     135   74.07    3.85 7.49E-2
 0.01612     130   76.92    3.74 8.08E-2
 0.01550     125   80.00    3.62 8.91E-2
 0.01488     120   83.33    3.51   0.100
 0.01426     115   86.96    3.38   0.115
 0.01364     110   90.91    3.25   0.134
 0.01302     105   95.24    3.10   0.159
 0.01240     100   100.0    2.92   0.193
 0.01178      95   105.3    2.71   0.240
 0.01116      90   111.1    2.45   0.310
 0.01054      85   117.6    2.12   0.423
 0.009919      80   125.0    1.68   0.633
 0.009299      75   133.3    1.19    1.09
 0.008679      70   142.9   0.881    1.79
 0.008059      65   153.8   0.781    2.51
 0.007439      60   166.7   0.771    3.21
 0.006819      55   181.8   0.811    3.94
 0.006199      50   200.0   0.894    4.72
 0.005579      45   222.2    1.02    5.59
 0.004959      40   250.0    1.21    6.61
 0.004339      35   285.7    1.50    7.83
 0.003720      30   333.3    1.93    9.35
 0.003100      25   400.0    2.63    11.3
 0.002480      20   500.0    3.81    14.0
 0.001860      15   666.7    6.03    17.9
 0.001240      10    1000    10.7    24.0
