;UO 
;UO Ir.ASC: Values of n and k for polycrystalline iridium from
;UO various references in HOCI (pg. 298).  References are 7, 8.
;UO 
;UO From HANDBOOK OF OPTICAL CONSTANTS IN SOLIDS edited by Edward D.
;UO Palik. Copyright (c) 1985 by Academic Press, Inc. Reproduced by
;UO permission of the publisher.
;UO -------------------------------------------------------------
;UO      eV    cm-1        um             n             k
;UO -------------------------------------------------------------
;N  5
;L  Energy[eV]  Wavelength[cm-1]  Wavelength[um]  n  k  
   2000. 16130000. 0.0006199 0.999710 1.22E-4
   1952. 15740000. 0.0006351 0.999585 1.31E-4
   1905. 15360000. 0.0006508 0.999451 1.42E-4
   1860. 15000000. 0.0006665 0.999388 1.53E-4
   1815. 14640000. 0.0006831 0.999335 1.65E-4
   1772. 14290000. 0.0006997 0.999284 1.78E-4
   1730. 13950000. 0.0007166 0.999235 1.92E-4
   1688. 13610000. 0.0007345 0.999185 2.07E-4
   1648. 13290000. 0.0007523 0.999134 2.23E-4
   1609. 12980000. 0.0007705 0.999082 2.40E-4
   1570. 12660000. 0.0007897 0.999028 2.59E-4
   1533. 12360000. 0.0008087 0.99897 2.79E-4
   1496. 12070000. 0.0008287 0.99892 3.00E-4
   1460. 11780000. 0.0008492 0.99886 3.23E-4
   1426. 11500000. 0.0008694 0.99880 3.48E-4
   1392. 11230000. 0.0008906 0.99873 3.74E-4
   1358. 10950000. 0.0009129 0.99867 4.03E-4
   1326. 10690000. 0.0009350 0.99860 4.34E-4
   1294. 10440000. 0.0009581 0.99853 4.67E-4
   1263. 10190000. 0.0009816 0.99846 5.03E-4
   1233. 9945000. 0.001005 0.99838 5.41E-4
   1204. 9711000. 0.001030 0.99830 5.80E-4
   1175. 9477000. 0.001055 0.99822 6.24E-4
   1147. 9251000. 0.001081 0.99814 6.71E-4
   1119. 9025000. 0.001108 0.99805 7.22E-4
   1093. 8816000. 0.001134 0.99796 7.75E-4
   1067. 8606000. 0.001162 0.99787 8.33E-4
   1041. 8396000. 0.001191 0.99777 8.97E-4
   1016. 8194000. 0.001220 0.99768 9.64E-4
    992. 8001000. 0.001250 0.99758 1.03E-3
    968. 7807000. 0.001281 0.99747 1.11E-3
    945. 7622000. 0.001312 0.99737 1.19E-3
    923. 7444000. 0.001343 0.99726 1.27E-3
    901. 7267000. 0.001376 0.99715 1.36E-3
    879. 7090000. 0.001410 0.99703 1.45E-3
    858. 6920000. 0.001445 0.99692 1.55E-3
    838. 6759000. 0.001479 0.99680 1.66E-3
    818. 6598000. 0.001516 0.99668 1.77E-3
    798. 6436000. 0.001554 0.99655 1.89E-3
    779. 6283000. 0.001592 0.99643 2.02E-3
    760. 6130000. 0.001631 0.99630 2.16E-3
    742. 5985000. 0.001671 0.99618 2.30E-3
    725. 5847000. 0.001710 0.99607 2.45E-3
    707. 5702000. 0.001754 0.99598 2.62E-3
    690. 5565000. 0.001797 0.99587 2.70E-3
    674. 5436000. 0.001839 0.99571 2.79E-3
    658. 5307000. 0.001884 0.99553 2.96E-3
    642. 5178000. 0.001931 0.99536 3.19E-3
    627. 5057000. 0.001977 0.99522 3.34E-3
    612. 4936000. 0.002026 0.99507 3.53E-3
    597. 4815000. 0.002077 0.99491 3.74E-3
    583. 4702000. 0.002127 0.99477 3.95E-3
    569. 4589000. 0.002179 0.99463 4.17E-3
    555. 4476000. 0.002234 0.99449 4.40E-3
    542. 4371000. 0.002287 0.99436 4.62E-3
    529. 4267000. 0.002344 0.99423 4.85E-3
    516. 4162000. 0.002403 0.99411 5.07E-3
    504. 4065000. 0.002460 0.99397 5.26E-3
    492. 3968000. 0.002520 0.99380 5.46E-3
    480. 3871000. 0.002583 0.99362 5.68E-3
    469. 3783000. 0.002643 0.99343 5.89E-3
    458. 3694000. 0.002707 0.99322 6.11E-3
    447. 3605000. 0.002774 0.99297 6.38E-3
    436. 3517000. 0.002844 O.99273 6.71E-3
    426. 3436000. 0.002910 0.99252 7.03E-3
    415. 3347000. 0.002987 0.99229 7.41E-3
    406. 3275000. 0.003054 0.99212 7.74E-3
    396. 3194000. 0.003131 0.99193 8.14E-3
    386. 3113000. 0.003212 0.99176 8.51E-3
    377. 3041000. 0.003289 0.99159 8.86E-3
    368. 2968000. 0.003369 0.99140 9.24E-3
    359. 2895000. 0.003453 0.99121 9.64E-3
    351. 2831000. 0.003532 0.99104 1.00E-2
    342. 2758000. 0.003625 0.99086 1.05E-2
    334. 2694000. 0.003712 0.99070 1.09E-2
    326. 2629000. 0.003803 0.99056 1.14E-2
    318. 2565000. 0.003899 0.99045 1.19E-2
    311. 2508000. 0.003986 0.99040 1.23E-2
    303. 2444000. 0.004092 0.99045 1.29E-2
    296. 2387000. 0.004188 0.99072 1.34E-2
    289. 2331000. 0.004290 0.99109 1.26E-2
    282. 2274000. 0.004396 0.99044 1.29E-2
    275. 2218000. 0.004508 0.99006 1.32E-2
    269. 2170000. 0.004609  0.9898 1.33E-2
    262. 2113000. 0.004732  0.9894 1.35E-2
    256. 2065000. 0.004843  0.9889 1.38E-2
    250. 2016000. 0.004959  0.9885 1.41E-2
    244. 1968000. 0.005081  0.9880 1.45E-2
    238. 1920000. 0.005209  0.9876 1.49E-2
    232. 1871000. 0.005344  0.9870 1.52E-2
    227. 1831000. 0.005462  0.9866 1.56E-2
    221. 1782000. 0.005610  0.9860 1.60E-2
    216. 1742000. 0.005740  0.9855 1.64E-2
    211. 1702000. 0.005876  0.9850 1.68E-2
    206. 1661000. 0.006018  0.9843 1.72E-2
    201. 1621000. 0.006168  0.9836 1.76E-2
    196. 1581000. 0.006325  0.9828 1.82E-2
    191. 1540000. 0.006491  0.9823 1.90E-2
    187. 1508000. 0.006630  0.9819 1.93E-2
    182. 1468000. 0.006812  0.9812 1.95E-2
    178. 1436000. 0.006965  0.9804 1.98E-2
    174. 1403000. 0.007125  0.9795 2.02E-2
    170. 1371000. 0.007293  0.9786 2.05E-2
    166. 1339000. 0.007469  0.9776 2.10E-2
    162. 1307000. 0.007653  0.9764 2.15E-2
    158. 1274000. 0.007847  0.9752 2.22E-2
    154. 1242000. 0.008051  0.9739 2.30E-2
    150. 1210000. 0.008265  0.9729 2.39E-2
    147. 1186000. 0.008434  0.9720 2.42E-2
    143. 1153000. 0.008670  0.9708 2.46E-2
    140. 1129000. 0.008856  0.9696 2.49E-2
    136. 1097000. 0.009116  0.9676 2.52E-2
    133. 1073000. 0.009322  0.9658 2.54E-2
    130. 1048000. 0.009537  0.9634 2.57E-2
    127. 1024000. 0.009762  0.9609 2.72E-2
    124. 1000000. 0.009998  0.9588 2.88E-2
    121. 975900. 0.01025  0.9570 3.05E-2
    118. 951700. 0.01051  0.9555 3.18E-2
    115. 992700. 0.01078  0.9536 3.27E-2
    112. 903300. 0.01107  0.9513 3.37E-2
    110. 887200. 0.01127  0.9498 3.45E-3
    107. 863000. 0.01159  0.9473 3.53E-2
    104. 838800. 0.01192  0.9443 3.62E-2
    102. 822700. 0.01215  0.9419 3.68E-2
    100. 806550. 0.01240  0.9394 3.74E-2
     40. 322600. 0.03100    0.76    0.22
     38. 306500. 0.03263    0.73    0.24
     36. 290400. 0.03444    0.69    0.27
     34. 274200. 0.03647    0.64    0.35
     32. 258200. 0.03875    0.62    0.44
     30. 242000. 0.04133    0.64    0.53
    29.5 237900. 0.04203    0.64    0.55
     29. 233900. 0.04275    0.65    0.57
    28.5 229900. 0.04350    0.66    0.59
     28. 225800. 0.04428    0.66    0.61
    27.5 221800. 0.04509    0.66    0.63
     27. 217800. 0.04592    0.66    0.66
    26.5 213700. 0.04678    0.67    0.69
     26. 209700. 0.04769    0.67    0.72
    25.5 205700. 0.04862    0.68    0.76
     25. 201600. 0.04959    0.69    0.79
    24.5 197600. 0.05060    0.70    0.83
     24. 193600. 0.05166    0.73    0.87
    23.5 189500. 0.05276    0.76    0.92
     23. 185500. 0.05391    0.79    0.96
    22.5 181500. 0.05510    0.84    0.99
     22. 177400. 0.05636    0.89    1.00
    21.5 173400. 0.05766    0.94    1.02
     21. 169400. 0.05904    0.99    1.04
    20.5 165300. 0.06048    1.04    1.05
     20. 161300. 0.06199    1.10    1.06
    19.6 158100. 0.06326    1.15    1.05
    19.2 154900. 0.06458    1.20    1.03
    18.8 151600. 0.06595    1.24    1.00
    18.4 148400. 0.06738    1.27    0.97
     18. 145200. 0.06888    1.30    0.93
    17.6 141900. 0.07045    1.30    0.87
    17.2 138700. 0.07208    1.28    0.83
    16.8 135500. 0.07380    1.25    0.82
    16.4 132300. 0.07560    1.23    0.82
     16. 129000. 0.07749    1.21    0.83
    15.6 125800. 0.07948    1.20    0.83
    15.2 122600. 0.08157    1.19    0.84
    14.8 119400. 0.08377    1.18    0.87
    14.4 116100. 0.08610    1.17    0.88
     14. 112900. 0.08856    1.16    0.91
    13.6 109700. 0.09117    1.17    0.95
    13.2 106500. 0.09393    1.18    0.96
    12.8 103200. 0.09686    1.19    1.01
    12.4 100000. 0.09999    1.21    l.05
    12.0  96790.  0.1033    1.24    1.08
    11.8  95170.  0.105l    1.25    1.10
    11.6  93560.  0.1069    1.28    1.12
    11.4  91950.  0.1088    1.31    1.13
    11.2  90330.  0.1107    1.34    1.14
    11.0  88720.  0.1127    1.38    1.13
    10.8  87110.  0.1148    1.41    1.12
    10.6  85490.  0.1170    1.43    1.09
    10.4  83880.  0.1192    1.44    1.07
    10.2  82270.  0.1216    1.45    1.04
    10.0  80655.  0.1240    1.45    1.01
     9.9  79850.  0.1252    1.44    1.00
     9.8  79040.  0.1265    1.44    0.99
     9.7  78230.  0.1278    1.43    0.98
     9.6  77430.  0.1291    1.42    0.97
     9.5  76620.  0.1305    1.40    0.96
     9.4  75820.  0.1319    1.39    0.95
     9.3  75010.  0.1333    1.38    0.95
     9.2  74200.  0.1348    1.36    0.95
     9.1  73400.  0.1362    1.35    0.94
     9.0  72590.  0.1378    1.33    0.94
     8.9  71780.  0.1393    1.31    0.94
     8.8  70980.  0.1409    1.29    0.95
     8.7  70170.  0.1425    1.27    0.95
     8.6  69360.  0.1442    1.26    0.96
     8.5  68560.  0.1459    1.24    0.97
     8.4  67750.  0.1476    1.22    0.98
     8.3  66940.  0.1494    1.20    0.99
     8.2  66140.  0.1512    1.18    1.00
     8.1  65330.  0.1531    1.15    1.01
     8.0  64520.  0.1550    1.13    1.03
     7.9  63720.  0.1569    1.11    1.05
     7.8  62910.  0.1590    1.08    1.06
     7.7  62100.  0.1610    1.05    1.10
     7.6  61300.  0.1631    1.03    1.14
     7.5  60490.  0.1653    1.03    1.18
     7.4  59680.  0.1675    1.02    1.20
     7.3  58880.  0.1698    1.00    1.23
     7.2  58070.  0.1722    0.99    1.27
     7.1  57260.  0.1746    0.98    1.30
     7.0  56460.  0.1771    0.97    1.34
     6.9  55650.  0.1797    0.96    1.38
     6.8  54840.  0.1823    0.95    1.42
     6.7  54040.  0.1851    0.95    1.46
     6.6  53230.  0.1879    0.94    1.50
     6.5  52430.  0.1907    0.95    1.54
     6.4  51620.  0.1937    0.94    1.59
     6.3  50810.  0.1968    0.94    1.63
     6.2  50010.  0.2000    0.94    1.68
     6.1  49200.  0.2033    0.94    1.73
     6.0  48390.  0.2066    0.95    1.78
     5.9  47590.  0.2101    0.97    1.82
     5.8  46780.  0.2138    0.96    1.86
     5.7  45970.  0.2175    0.97    1.92
     5.6  45170.  0.2214    0.98    1.98
     5.5  44360.  0.2254    0.99    2.03
     5.4  43550.  0.2296    1.00    2.09
     5.3  42750.  0.2339    1.02    2.15
     5.2  41940.  0.2384    1.04    2.22
     5.1  41130.  0.2431    1.07    2.29
     5.0  40330.  0.2480    1.10    2.35
     4.9  39520.  0.2530    1.13    2.42
     4.8  38710.  0.2583    1.18    2.49
     4.7  37910.  0.2638    1.24    2.56
     4.6  37100.  0.2695    1.31    2.60
     4.5  36290.  0.2755    1.37    2.65
     4.4  35490.  0.2818    1.45    2.68
     4.3  34680.  0.2883    1.51    2.70
     4.2  33880.  0.2952    1.58    2.71
     4.1  33070.  0.3024    1.62    2.70
     4.0  32260.  0.3100    1.64    2.68
     3.9  31460.  0.3179    1.64    2.67
     3.8  30650.  0.3263    1.61    2.69
     3.7  29840.  0.3351    1.57    2.72
     3.6  29040.  0.3444    1.52    2.81
     3.5  28230.  0.3542    1.50    2.93
     3.4  27420.  0.3647    1.53    3.05
     3.3  26620.  0.3757    1.57    3.15
     3.2  25810.  0.3875    1.62    3.26
     3.1  25000.  0.4000    1.68    3.35
     3.0  24200.  0.4133    1.73    3.43
     2.9  23390.  0.4275    1.77    3.51
     2.8  22580.  0.4428    1.81    3.61
     2.7  21780.  0.4592    1.85    3.73
     2.6  20970.  0.4769    1.91    3.86
     2.5  20160.  0.4959    1.98    4.00
     2.4  19360.  0.5166    2.07    4.14
     2.3  18550.  0.5391    2.18    4.26
     2.2  17740.  0.5636    2.29    4.38
     2.1  16940.  0.5904    2.40    4.48
     2.0  16130.  0.6199    2.50    4.57
     1.9  15320.  0.6526    2.57    4.68
     1.8  14520.  0.6888    2.64    4.81
     1.7  13710.  0.7293    2.69    4.92
     1.6  12900.  0.7749    2.68    5.08
     1.5  12100.  0.8266    2.65    5.39
     1.4  11290.  0.8856    2.72    5.74
     1.3  10490.  0.9537    2.85    6.07
     1.2   9679.   1.033    2.96    6.41
     1.1   8872.   1.127    3.04    6.84
     1.0   8065.   1.240    3.15    7.31
     0.9   7259.   1.378    3.19    7.88
     0.8   6452.   1.550    3.14    8.61
     0.7   5646.   1.771    2.93    9.78
     0.6   4839.   2.066    2.79    11.6
     0.5   4033.   2.480    2.98    14.1
    0.45   3629.   2.755    3.05    15.8
     0.4   3226.   3.100    3.42    18.1
    0.35   2823.   3.542    4.11    20.8
     0.3   2420.   4.133    5.16    24.3
    0.25   2016.   4.959    6.85    28.8
     0.2   1613.   6.199    9.69    35.3
    0.15   1210.   8.266    15.3    45.2
     0.1   806.5   12.40    28.5    60.6
