;UO 
;UO K.ASC: Values of n and k for polycrystalline potassium from
;UO various references in HOCII (pg. 370). References are 6, 13,
;UO 15, 16.
;UO 
;UO From HANDBOOK OF OPTICAL CONSTANTS IN SOLIDS II edited by Edward D.
;UO Palik. Copyright (c) 1991 by Academic Press, Inc. Reproduced by
;UO permission of the publisher.
;UO ------------------------------------------------------------
;UO   eV            cm-1        um           n               k 
;UO ------------------------------------------------------------
;N  5
;L  Energy[eV]  Wavelength[cm-1]  Wavelength[um]  n  k  
  10000. 80655000. 0.0001240 0.9999982 7.02E-08
   9549. 77017000. 0.0001298 0.9999980 8.10E-08
   9117. 73533000. 0.0001360 0.9999979 9.63E-08
   8706. 70218000. 0.0001424 0.9999977 1.15E-07
   8313. 67049000. 0.0001492 0.9999974 1.38E-07
   7937. 64016000. 0.0001562 0.9999972 1.65E-07
   7579. 61128000. 0.0001636 0.9999969 1.97E-07
   7237. 58370000. 0.0001713 0.9999966 2.34E-07
   6910. 55733000. 0.0001794 0.9999963 2.78E-07
   6598. 53216000. 0.0001879 0.9999959 3.30E-07
   6300. 50813000. 0.0001968 0.9999955 3.92E-07
   6015. 48514000. 0.0002061 0.9999951 4.66E-07
   5744. 46328000. 0.0002159 0.9999946 5.53E-07
   5484. 44231000. 0.0002261 0.9999942 6.57E-07
   5237. 42239000. 0.0002368 0.9999936 7.80E-07
   5000. 40328000. 0.0002480 0.9999931 9.25E-07
   4775. 38513000. 0.0002597 0.9999924 1.10E-06
   4559. 36771000. 0.0002720 0.9999918 1.30E-06
   4353. 35109000. 0.0002848 0.9999911 1.55E-06
   4157. 33528000. 0.0002983 0.9999905 1.83E-06
   3969. 32012000. 0.0003124 0.9999899 2.18E-06
   3790. 30568000. 0.0003272 0.9999895 2.58E-06
   3703. 29867000. 0.0003348 0.9999896 2.81E-06
   3619. 29189000. 0.0003426 0.9999905 3.06E-06
   3536. 28520000. 0.0003506 0.9999891 3.50E-07
   3455. 27866000. 0.0003588 0.9999880 3.81E-07
   3299. 26608000. 0.0003758 0.9999862 4.52E-07
   3150. 25406000. 0.0003936 0.9999844 5.35E-07
   3008. 24261000. 0.0004122 0.9999827 6.34E-07
   2872. 23164000. 0.0004317 0.9999808 7.54E-07
   2742. 22116000. 0.0004521 0.9999787 8.96E-07
   2619. 21124000. 0.0004735 0.9999765 1.07E-06
   2500. 20164000. 0.0004959 0.9999741 1.27E-06
   2387. 19252000. 0.0005193 0.9999714 1.51E-06
   2280. 18389000. 0.0005439 0.9999685 1.79E-06
   2177. 17559000. 0.0005696 0.9999653 2.12E-06
   2078. 16760000. 0.0005965 0.9999618 2.52E-06
   1985. 16010000. 0.0006248 0.9999579 2.99E-06
   1895. 15284000. 0.0006543 0.9999537 3.55E-06
   1809. 14590000. 0.0006852 0.9999490 4.21E-06
   1728. 13937000. 0.0007176 0.9999440 5.00E-06
   1650. 13308000. 0.0007516 0.9999384 5.92E-06
   1575. 12703000. 0.0007871 0.9999322 7.00E-06
   1504. 12131000. 0.0008244 0.9999255 8.27E-06
   1436. 11582000. 0.0008633 0.9999181 9.77E-06
   1371. 11058000. 0.0009041 0.9999100 1.15E-05
   1309. 10558000. 0.0009469 0.9999011 1.36E-05
   1250. 10082000. 0.0009917 0.999891 1.61E-05
   1194. 9630200. 0.001039 0.999881 1.90E-05
   1140. 9194700. 0.001088 0.999869 2.23E-05
   1088. 8775300. 0.001139 0.999857 2.63E-05
   1039. 8380100. 0.001193 0.999843 3.09E-05
   992.3 8003400. 0.001249 0.999828 3.64E-05
   947.5 7642100. 0.001309 0.999812 4.23E-05
   904.7 7296900. 0.001370 0.999794 4.89E-05
   863.9 6967800. 0.001435 0.999774 5.64E-05
   824.9 6653200. 0.001503 0.999752 6.66E-05
   787.7 6353200. 0.001574 0.999728 7.86E-05
   752.1 6066100. 0.001649 0.999703 9.27E-05
   718.1 5791800. 0.001727 0.999677 1.09E-04
   685.7 5530500. 0.001808 0.999649 1.29E-04
   654.7 5280500. 0.001894 0.999619 1.50E-04
   625.1 5041700. 0.001983 0.999587 1.75E-04
   596.9 4814300. 0.002077 0.999553 2.04E-04
   570.0 4597300. 0.002175 0.999518 2.38E-04
   544.0 4387600. 0.002278 0.999482 2.78E-04
   519.7 4191600. 0.002386 0.999447 3.24E-04
   496.2 4002100. 0.002499 0.999411 3.76E-04
   473.8 3821400. 0.002617 0.999378 4.38E-04
   452.4 3648800. 0.002741 0.999352 5.08E-04
   432.9 3491500. 0.002870 0.999331 5.81E-04
   412.5 3327000. 0.003006 0.999317 6.64E-04
   393.8 3176200. 0.003148 0.999319 7.59E-04
   376.1 3033400. 0.003297 0.999388 7.84E-04
   359.1 2896300. 0.003453 0.999331 9.01E-04
   342.9 2765700. 0.003616 0.999361 1.04E-03
   327.4 2640600. 0.003787 0.999454 1.19E-03
   312.6 2521300. 0.003966 0.999676 1.36E-03
   305.5 2464000. 0.004059 0.999883 1.45E-03
   298.5 2407500. 0.004154 1.000338 1.54E-03
   291.7 2352700. 0.004251 1.001052 1.53E-04
   285.0 2298700. 0.004350 1.000136 1.63E-04
   278.5 2246200. 0.004452 0.999882 1.74E-04
   272.1 2194600. 0.004556 0.999709 1.85E-04
   259.9 2096200. 0.004771 0.999460 2.10E-04
   248.1 2001000. 0.004997 0.999259 2.38E-04
   236.9 1910700. 0.005233 0.999077 2.70E-04
   226.2 1824400. 0.005481 0.99890 3.06E-04
   216.0 1742100. 0.005740 0.99872 3.46E-04
   206.2 1663100. 0.006012 0.99854 3.91E-04
   196.9 1588100. 0.006296 0.99834 4.41E-04
   188.0 1516300. 0.006594 0.99814 4.96E-04
   179.6 1448600. 0.006905 0.99792 5.55E-04
   171.4 1382400. 0.007232 0.99769 6.21E-04
   163.7 1320300. 0.007574 0.99745 6.96E-04
   156.3 1260600. 0.007932 0.99718 7.76E-04
   149.3 1204200. 0.008307 0.99690 8.60E-04
   142.5 1149300. 0.008700 0.99659 9.52E-04
   136.1 1097700. 0.009111 0.99625 1.05E-03
   129.9 1047700. 0.009542 0.99589 1.17E-03
   124.1 1000900. 0.009994 0.99551 1.29E-03
   118.5 955760. 0.01047 0.99510 1.41E-03
   113.1 912210. 0.01096 0.99464 1.53E-03
   108.0 871070. 0.01148 0.99414 1.67E-03
   103.1 831550. 0.01202 0.99359 1.82E-03
   98.47 794210. 0.01259 0.99301 1.98E-03
   94.03 758400. 0.01319 0.99236 2.12E-03
   89.78 724120. 0.01381 0.99170 2.30E-03
   85.73 691450. 0.01446 0.99096 2.38E-03
   81.85 660160. 0.01515 0.99011 2.44E-03
   78.16 630400. 0.01586  0.9891 2.44E-03
   74.63 601930. 0.01661  0.9880 2.40E-03
   71.26 574750. 0.01740  0.9866 2.26E-03
   68.04 548780. 0.01822  0.9849 2.08E-03
   64.97 524010. 0.01908  0.9828 1.91E-03
   62.04 500380. 0.01999  0.9803 1.68E-03
   59.24 477800. 0.02093  0.9772 1.57E-03
   56.56 456180. 0.02192  0.9733 1.61E-03
   54.01 435620. 0.02296  0.9685 1.97E-03
   51.57 415940. 0.02404  0.9624 2.97E-03
    32.0 258100. 0.03875 -0.0001 4.8E-02
    31.0 250030. 0.03999 -0.0001 5.2E-02
    30.0 241970. 0.04133 -0.0001 5.9E-02
    29.0 233900. 0.04275 -0.0001 6.8E-02
    28.0 225830. 0.04428 -0.0001 7.9E-02
    27.0 217770. 0.04592 -0.0001 9.2E-02
    26.0 209700. 0.04769 -0.0001 9.9E-02
    25.0 201640. 0.04959 -0.0001 1.0E-01
    24.0 193570. 0.05166 -0.0001 9.7E-02
    23.0 185510. 0.05391 -0.0001 8.5E-02
    22.5 181470. 0.05510 -0.0001 7.9E-02
    22.0 177440. 0.05636 -0.0001 7.5E-02
    21.5 173410. 0.05767 -0.0001 7.5E-02
    21.0 169380. 0.05904 -0.0001 6.8E-02
    20.0 161310. 0.06199 -0.0001 5.4E-02
    19.0 153240. 0.06525 -0.0001 4.3E-02
    18.8 151630. 0.06595 -0.0001 4.3E-02
    18.5 149210. 0.06702 -0.0001 5.1E-02
    18.4 148410. 0.06738 -0.0001 4.2E-02
    18.3 147600. 0.06775 -0.0001 4.7E-02
    18.0 145180. 0.06888 -0.0001 1.4E-02
    17.5 141150. 0.07085 -0.0001 1.2E-02
    17.0 137110. 0.07293 -0.0001 1.2E-02
    16.0 129050. 0.07749 -0.0001 1.4E-02
    15.0 120980. 0.08266 -0.0001 1.8E-02
    14.0 112920. 0.08856 -0.0001 2.5E-02
    13.0 104850. 0.09537 -0.0001 2.3E-02
    12.0  96786.  0.1033 -0.0001 2.8E-02
    11.0  88720.  0.1127 -0.0001 3.1E-02
   10.33  83333.   0.120    0.94  3.E-02
   9.919  80000.   0.125    0.94  4.E-02
   9.537  76923.   0.130    0.94  4.E-02
    9.50  76622.  0.1305 -0.0001 5.0E-02
   9.184  74074.   0.135    0.94  5.E-02
   8.856  71429.   0.140    0.94  5.E-02
   8.551  68966.   0.145    0.94  6.E-02
    8.26  66667.   0.150    0.94  6.E-02
   7.999  64516.   0.155    0.94  6.E-02
   7.749  62500.   0.160    0.94  6.E-02
   7.514  60606.   0.165    0.93  6.E-02
   7.293  58824.   0.170    0.93  6.E-02
   7.085  57143.   0.175    0.92  6.E-02
   6.888  55555.   0.180    0.92  6.E-02
   6.702  54054.   0.185    0.91  6.E-02
   6.526  52632.   0.190    0.90  6.E-02
   6.358  51282.   0.195    0.88  5.E-02
   6.199  50000.   0.200    0.87  5.E-02
   6.048  48780.   0.205    0.85  5.E-02
   5.767  46512.   0.215    0.83  5.E-02
   5.637  45455.   0.220    0.81  5.E-02
   5.510  44444.   0.225    0.79  5.E-02
   5.391  43478.   0.230    0.78  4.E-02
   5.276  42553.   0.235    0.76  4.E-02
   5.166  41667.   0.240    0.74  4.E-02
   5.061  40816.   0.245    0.72  4.E-02
   4.959  40000.   0.250    0.70  4.E-02
   4.862  39216.   0.255    0.68  4.E-02
   4.769  38462.   0.260    0.66  4.E-02
   4.679  37736.   0.265    0.64  4.E-02
   4.592  37037.   0.270    0.61  5.E-02
   4.509  36364.   0.275    0.58  5.E-02
   4.428  35714.   0.280    0.55  5.E-02
   4.350  35088.   0.285    0.52  5.E-02
   4.275  34483.   0.290    0.48  6.E-02
   4.203  33898.   0.295    0.45  6.E-02
   4.133  33333.   0.300    0.41  7.E-02
   4.065  32787.   0.305    0.38  7.E-02
   4.000  32258.   0.310    0.34  8.E-02
    3.97  32020.  0.3123   0.287 9.10E-02
    3.71  29923.  0.3342 8.9E-02   0.288
    3.40  27423.  0.3647 5.2E-02   0.549
    3.06  24680.  0.4052 4.1E-02   0.799
    2.95  23793.  0.4203 4.1E-02   0.898
    2.82  22745.  0.4397 4.3E-02    1.02
    2.64  21293.  0.4696 4.3E-02    1.14
    2.45  19760.  0.5061 4.6E-02    1.28
    2.27  18309.  0.5462 4.9E-02    1.43
    2.07  16696.  0.5990 5.3E-02    1.62
    1.87  15082.  0.6630 5.0E-02    1.84
    1.65  13308.  0.7514 4.4E-02    2.19
    1.44  11614.  0.8610 4.0E-02    2.56
    1.23   9921.   1.008 4.0E-02    3.04
    1.05   8469.   1.181 4.4E-02    3.58
    0.92   7420.   1.348 5.6E-02    4.19
    0.81   6533.   1.531 6.6E-02    4.75
    0.73   5889.   1.698 7.9E-02    5.30
    0.67   5404.   1.851 9.1E-02    5.79
    0.63   5081.   1.968   0.106    6.32
    0.58   4678.   2.138   0.119    6.72
    0.55   4436.   2.254   0.139    7.10
