;UO 
;UO KBr.ASC: Values of n and k for cubic potassium bromide from
;UO various references in HOCII (pg. 994). References are 2, 5,
;UO 6, 7, 9, 11, 13, 14, 15, 16, 17, 18.
;UO 
;UO Copyright (c) 1995 by the Optical Society of America.  Data
;UO from HANDBOOK OF OPTICAL CONSTANTS IN SOLIDS II edited by Edward D.
;UO Palik. Copyright (c) 1991 by Academic Press, Inc. Reproduced by
;UO permission of the publisher.
;UO ------------------------------------------------------------ 
;UO      eV   cm-1            um          n          k 
;UO ------------------------------------------------------------	
;N  5
;L  Energy[eV]  Wavelength[cm-1]  Wavelength[um]  n  k  
    200. 1613000. 0.006199 -0.0001 4.17E-3
    195. 1573000. 0.006358 -0.0001 4.40E-3
   192.5 1553000. 0.006440 -0.0001 4.43E-3
    190. 1532000. 0.006526 -0.0001 4.52E-3
   187.5 1512000. 0.006612 -0.0001 4.68E-3
    185. 1492000. 0.006702 -0.0001 4.47E-3
    180. 1452000. 0.006888 -0.0001 4.63E-3
    175. 1411000. 0.007085 -0.0001 4.79E-3
    170. 1371000. 0.007293 -0.0001 4.97E-3
    165. 1331000. 0.007514 -0.0001 5.14E-3
    160. 1290000. 0.007749 -0.0001 5.30E-3
    155. 1250000. 0.007999 -0.0001 5.51E-3
    150. 1210000. 0.008265 -0.0001 5.75E-3
    145. 1169000. 0.008551 -0.0001 6.00E-3
    140. 1129000. 0.008856 -0.0001 6.20E-3
    135. 1089000. 0.009184 -0.0001 6.35E-3
    130. 1048000. 0.009537 -0.0001 6.49E-3
    125. 1008000. 0.009919 -0.0001 6.59E-3
    120. 967900. 0.01033 -0.0001 6.74E-3
    115. 927500. 0.01078 -0.0001 6.82E-3
    110. 887200. 0.01127 -0.0001 6.91E-3
    105. 846900. 0.01181 -0.0001 6.95E-3
    100. 806550. 0.01240 -0.0001 6.91E-3
     95. 766200. 0.01305 -0.0001 6.91E-3
     90. 725900. 0.01378 -0.0001 7.04E-3
     89. 717800. 0.01393 -0.0001 7.12E-3
     88. 709800. 0.01408 -0.0001 7.19E-3
     87. 701700. 0.01425 -0.0001 7.26E-3
     86. 693600. 0.01441 -0.0001 7.28E-3
     85. 685600. 0.01459 -0.0001 7.20E-3
     84. 677500. 0.01476 -0.0001 6.93E-3
     83. 669400. 0.01493 -0.0001 6.66E-3
     82. 661400. 0.01512 -0.0001 6.38E-3
     81. 653300. 0.01530 -0.0001 6.33E-3
    80.5 649300. 0.01540 -0.0001 6.40E-3
     80. 645200. 0.01550 -0.0001 7.03E-3
    79.5 641200. 0.01559 -0.0001 7.38E-3
     79. 637200. 0.01569 -0.0001 7.80E-3
    78.5 633100. 0.01579 -0.0001 8.42E-3
     78. 629100. 0.01589 -0.0001 8.22E-3
    77.5 625100. 0.01599 -0.0001 8.15E-3
     77. 621000. 0.01610 -0.0001 8.04E-3
    76.5 617000. 0.01620 -0.0001 8.06E-3
     76. 613000. 0.01631 -0.0001 7.98E-3
    75.5 608900. 0.01642 -0.0001 8.04E-3
     75. 604900. 0.01653 -0.0001 8.09E-3
    74.5 600900. 0.01664 -0.0001 8.87E-3
     74. 596800. 0.01675 -0.0001 9.60E-3
    73.5 592800. 0.01686 -0.0001 9.46E-3
     73. 588800. 0.01698 -0.0001 9.87E-3
    72.5 584700. 0.01710 -0.0001 8.44E-3
     72. 580700. 0.01722 -0.0001 7.54E-3
    71.5 576700. 0.01734 -0.0001 6.76E-3
     71. 572600. 0.01746 -0.0001 6.67E-3
    70.5 568600. 0.01758 -0.0001 6.71E-3
     70. 564600. 0.01771 -0.0001 6.76E-3
     40. 322600. 0.03099    0.91  6.9E-2
    39.5 318600. 0.03138    0.90  7.1E-2
     39. 314500. 0.03179    0.90  7.2E-2
    38.5 310500. 0.03220    0.89  7.6E-2
     38. 306500. 0.03262    0.88  8.0E-2
    37.5 302500. 0.03306    0.87  8.6E-2
     37. 298400. 0.03350    0.86  9.3E-2
    36.5 294400. 0.03396    0.84    0.11
     36. 290400. 0.03444    0.84    0.13
    35.5 286300. 0.03492    0.85    0.14
     35. 282300. 0.03542    0.85    0.15
    34.5 278300. 0.03593    0.86    0.15
     34. 274200. 0.03646    0.87    0.15
    33.5 270200. 0.03701    0.88    0.15
     33. 266200. 0.03757    0.88    0.14
    32.5 262100. 0.03814    0.86    0.14
     32. 258100. 0.03874    0.85    0.15
    31.5 254100. 0.03936    0.85    0.16
     31. 250000. 0.03999    0.84    0.18
     31. 250000. 0.03999    0.80 -0.0001
    30.5 246000. 0.04065    0.84    0.18
    30.5 246000. 0.04065    0.80 -0.0001
     30. 242000. 0.04132    0.84    0.19
     30. 242000. 0.04132    0.78    0.22
    29.5 237900. 0.04202    0.83    0.20
    29.5 237900. 0.04202    0.77    0.23
     29. 233900. 0.04275    0.81    0.22
     29. 233900. 0.04275    0.76    0.26
    28.5 229900. 0.04350    0.82    0.29
    28.5 229900. 0.04350    0.76    0.31
     28. 225800. 0.04428    0.88    0.32
     28. 225800. 0.04428    0.79    0.33
    27.5 221800. 0.04508    0.92    0.29
    27.5 221800. 0.04508    0.84    0.31
     27. 217800. 0.04592    0.91    0.26
     27. 217800. 0.04592    0.84    0.30
    26.5 213700. 0.04678    0.89    0.27
    26.5 213700. 0.04678    0.83    0.31
     26. 209700. 0.04769    0.89    0.30
     26. 209700. 0.04769    0.82    0.34
    25.5 205700. 0.04862    0.92    0.33
    25.5 205700. 0.04862    0.85    0.34
     25. 201600. 0.04959    0.95    0.33
     25. 201600. 0.04959    0.88    0.35
    24.5 197600. 0.05060    0.90    0.35
     24. 193600. 0.05166    0.90    0.34
    23.5 189500. 0.05275    0.90    0.33
     23. 185500. 0.05391    0.89    0.33
    22.5 181500. 0.05510    0.88    0.34
     22. 177400. 0.05636    0.87    0.35
   21.75 175400. 0.05700    0.86    0.38
    21.5 173400. 0.05766    0.85    0.40
   21.25 171400. 0.05834    0.85    0.52
     21. 169400. 0.05904    0.98    0.47
   20.75 167400. 0.05975    0.98    0.41
    20.5 165300. 0.06048    0.97    0.34
    20.4 164500. 0.06077    1.01    0.31
   20.25 163300. 0.06122    0.95    0.34
    20.2 162900. 0.06137    0.96    0.34
    20.1 162100. 0.06168    0.92    0.36
     20. 161300. 0.06199    0.91    0.38
     20. 161300. 0.06199    0.94    0.42
   19.95 160900. 0.06214    0.97    0.46
    19.9 160500. 0.06230    1.01    0.49
   19.85 160100. 0.06246    1.02    0.48
    19.8 159700. 0.06261    1.04    0.46
   19.75 159300. 0.06277    1.07    0.46
    19.7 158900. 0.06293    1.09    0.44
    19.6 158100. 0.06325    1.12    0.39
    19.5 157300. 0.06358    1.10    0.34
    19.4 156500. 0.06390    1.07    0.32
    19.2 154900. 0.06457    1.03    0.32
    19.0 153200. 0.06525    1.00    0.33
    18.8 151600. 0.06594    0.98    0.36
    18.6 150000. 0.06665    0.98    0.37
    18.4 148400. 0.06737    0.99    0.41
    18.2 146800. 0.06811    1.03    0.43
    18.0 145200. 0.06888    1.05    0.43
    17.8 143600. 0.06965    1.07    0.42
    17.6 141900. 0.07044    1.09    0.41
    17.4 140300. 0.07125    1.10    0.39
    17.2 138700. 0.07208    1.10    0.37
    17.0 137100. 0.07293    1.10    0.36
    16.8 135500. 0.07380    1.09    0.32
    16.6 133900. 0.07469    1.09    0.32
    16.4 132300. 0.07560    1.09    0.32
    16.2 130700. 0.07653    1.05    0.32
    16.0 129000. 0.07749    1.03    0.36
    15.8 127400. 0.07847    1.07    0.35
    15.6 125800. 0.07947    1.07    0.34
    15.4 124200. 0.08050    1.07    0.33
    15.2 122600. 0.08156    1.06    0.30
    15.0 121000. 0.08265    1.04    0.29
    14.8 119400. 0.08377    1.01    0.28
    14.6 117800. 0.08492    0.98    0.27
    14.4 116100. 0.08610    0.95    0.27
    14.2 114500. 0.08731    0.90    0.29
    14.0 112900. 0.08856    0.86    0.33
    13.8 111300. 0.08984    0.84    0.37
    13.6 109700. 0.09116    0.82    0.40
    13.4 108100. 0.09253    0.79    0.45
    13.2 106500. 0.09393 -0.0001    0.50
   13.05 105200. 0.09500   1.133   0.645
    13.0 104800. 0.09537 -0.0001    0.61
   12.83 103500. 0.09666   1.107   0.656
   12.60 101600. 0.09840   1.086   0.758
   12.37  99770.  0.1002   1.113   0.854
   12.20  98400.  0.1016   1.132   0.938
   11.99  96700.  0.1034   1.207   1.058
   11.84  95500.  0.1047   1.341   1.166
   11.64  93880.  0.1065   1.621   1.192
   11.43  92190.  0.1085   1.851   0.986
   11.23  90580.  0.1104   1.859   0.838
   11.00  88720.  0.1128   1.838   0.655
   10.94  88240.  0.1133   1.824   0.634
   10.82  87270.  0.1146   1.824   0.571
   10.69  86220.  0.1160   1.760   0.532
   10.63  85740.  0.1166   1.752   0.520
   10.52  84850.  0.1178   1.719   0.494
   10.42  84040.  0.1189   1.704   0.501
   10.33  83320.  0.1200   1.687   0.504
   10.20  82270.  0.1216   1.684   0.458
   10.13  81700.  0.1223   1.635   0.473
   9.890  79770.  0.1254   1.670   0.424
   9.807  79100.  0.1264   1.606   0.413
   9.712  78330.  0.1277   1.588   0.433
   9.611  77520.  0.1290   1.569   0.432
   9.520  76780.  0.1302   1.539   0.414
   9.356  75460.  0.1325   1.488   0.434
   9.294  74960.  0.1334   1.452   0.413
   9.203  74230.  0.1347   1.369   0.449
   9.093  73340.  0.1363   1.303   0.553
   9.002  72610.  0.1377   1.282   0.698
   8.894  71730.  0.1394   1.335   0.797
   8.801  70980.  0.1409   1.341   0.879
   8.712  70270.  0.1423   1.390   1.073
   8.604  69400.  0.1441   1.702   1.267
   8.504  68590.  0.1458   2.042   1.125
   8.409  67820.  0.1474   2.150   0.929
   8.291  66870.  0.1495   2.153   0.774
   8.203  66160.  0.1511   2.195   0.650
   8.091  65260.  0.1532   2.192   0.551
   8.011  64610.  0.1548   2.158   0.437
   7.899  63710.  0.1570   2.056   0.330
   7.840  63230.  0.1581   1.990   0.297
   7.790  62830.  0.1592   1.950   0.333
   7.752  62520.  0.1599   1.953   0.334
   7.710  62180.  0.1608   1.910   0.348
   7.648  61680.  0.1621   1.946   0.312
   7.613  61400.  0.1629   1.875   0.278
   7.557  60950.  0.1640   1.808   0.303
   7.506  60540.  0.1652   1.802   0.307
   7.446  60060.  0.1665   1.713   0.347
   7.402  59700.  0.1675   1.649   0.397
   7.358  59350.  0.1685   1.613   0.480
   7.293  58830.  0.1700   1.593   0.662
   7.250  58470.  0.1710   1.650   0.809
   7.208  58140.  0.1720   1.799   0.925
   7.146  57640.  0.1735   2.142   0.983
   7.105  57310.  0.1745   2.349   0.826
   7.044  56810.  0.1760   2.433   0.486
   7.004  56490.  0.1770   2.348   0.322
   6.945  56010.  0.1785   2.174   0.179
   6.907  55710.  0.1795   2.029   0.172
   6.850  55240.  0.1810   1.863   0.229
   6.793  54790.  0.1825   1.732   0.345
   6.756  54500.  0.1835   1.669   0.473
   6.701  54050.  0.1850   1.679   0.774
     6.7  54040.  0.1851 -0.0001   0.780
    6.65  53680.  0.1864 -0.0001   0.564
   6.648  53620.  0.1865   1.876   1.070
     6.6  53280.  0.1879 -0.0001    1.26
   6.595  53190.  0.1880   2.348   1.279
    6.55  52870.  0.1893 -0.0001   0.678
   6.542  52770.  0.1895   2.977   0.846
   6.508  52490.  0.1905   2.957   0.444
     6.5  52470.  0.1907 -0.0001   0.334
   6.457  52080.  0.1920   2.761   0.131
    6.45  52020.  0.1922 -0.0001 6.12E-2
   6.407  51680.  0.1935   2.549 2.31E-2
     6.4  51620.  0.1937 -0.0001 1.70E-2
    6.35  51220.  0.1953 -0.0001 3.89E-3
     6.3  50810.  0.1968 -0.0001 9.71E-4
    6.25  50410.  0.1984 -0.0001 2.53E-4
     6.2  50010.  0.2000 -0.0001 6.37E-5
   6.199  50000.    0.20 2.09953 -0.0001
    6.15  49600.  0.2016 -0.0001 3.05E-5
     6.1  49200.  0.2033 -0.0001 1.62E-5
    6.05  48800.  0.2049 -0.0001 9.78E-6
     6.0  48390.  0.2066 -0.0001 5.75E-6
    5.95  47990.  0.2048 -0.0001 4.24E-6
   5.904  47620.    0.21 1.93440 -0.0001
     5.9  47590.  0.2101 -0.0001 3.68E-6
   5.636  45450.    0.22 1.85023 -0.0001
   5.391  43480.    0.23 1.79622 -0.0001
   5.166  41670.    0.24 1.75773 -0.0001
   4.959  40000.    0.25 1.72863 -0.0001
   4.769  38460.    0.26 1.70575 -0.0001
   4.592  37040.    0.27 1.68725 -0.0001
   4.428  35710.    0.28 1.67197 -0.0001
   4.275  34480.    0.29 1.65915 -0.0001
   4.133  33330.    0.30 1.64825 -0.0001
   3.999  32260.    0.31 1.63886 -0.0001
   3.874  31250.    0.32 1.63071 -0.0001
   3.757  30300.    0.33 1.62357 -0.0001
   3.647  29410.    0.34 1.61727 -0.0001
   3.542  28570.    0.35 1.61167 -0.0001
   3.444  27780.    0.36 1.60668 -0.0001
   3.351  27030.    0.37 1.60220 -0.0001
   3.263  26320.    0.38 1.59816 -0.0001
   3.179  25640.    0.39 1.59450 -0.0001
   3.100  25000.    0.40 1.59117 -0.0001
   2.952  23810.    0.42 1.58537 -0.0001
   2.818  22730.    0.44 1.58048 -0.0001
   2.695  21740.    0.46 1.57632 -0.0001
   2.583  20830.    0.48 1.57274 -0.0001
   2.480  20000.    0.50 1.56964 -0.0001
   2.384  19230.    0.52 1.56694 -0.0001
   2.296  18520.    0.54 1.56456 -0.0001
   2.214  17860.    0.56 1.56247 -0.0001
   2.138  17240.    0.58 1.56060 -0.0001
   2.066  16670.    0.60 1.55894 -0.0001
   2.000  16130.    0.62 1.55744 -0.0001
   1.937  15630.    0.64 1.55610 -0.0001
   1.879  15150.    0.66 1.55488 -0.0001
   1.823  14710.    0.68 1.55378 -0.0001
   1.771  14290.    0.70 1.55278 -0.0001
   1.722  13890.    0.72 1.55186 -0.0001
   1.675  13510.    0.74 1.55102 -0.0001
   1.631  13160.    0.76 1.55025 -0.0001
   1.590  12820.    0.78 1.54954 -0.0001
   1.550  12500.    0.80 1.54888 -0.0001
   1.512  12200.    0.82 1.54828 -0.0001
   1.476  11900.    0.84 1.54772 -0.0001
   1.442  11630.    0.86 1.54720 -0.0001
   1.409  11360.    0.88 1.54671 -0.0001
   1.378  11110.    0.90 1.54626 -0.0001
   1.348  10870.    0.92 1.54584 -0.0001
   1.319  10640.    0.94 1.54544 -0.0001
   1.291  10420.    0.96 1.54507 -0.0001
   1.265  10200.    0.98 1.54472 -0.0001
   1.240  10000.    1.00 1.54440 -0.0001
   1.033   8333.     1.2 1.54198 -0.0001
  0.8856   7143.     1.4 1.54052 -0.0001
  0.7749   6250.     1.6 1.53955 -0.0001
  0.6888   5556.     1.8 1.53901 -0.0001
  0.6199   5000.     2.0 1.53833 -0.0001
  0.5636   4545.     2.2 1.53792 -0.0001
  0.5166   4167.     2.4 1.53758 -0.0001
  0.4769   3846.     2.6 1.53728 -0.0001
  0.4428   3571.     2.8 1.53702 -0.0001
  0.4133   3333.     3.0 1.53677 -0.0001
  0.3874   3125.     3.2 1.53655 -0.0001
  0.3647   2941.     3.4 1.53633 -0.0001
  0.3444   2778.     3.6 1.53611 -0.0001
  0.3263   2632.     3.8 1.53590 -0.0001
  0.3100   2500.     4.0 1.53569 -0.0001
  0.2952   2381.     4.2 1.53547 -0.0001
  0.2818   2273.     4.4 1.53526 -0.0001
  0.2695   2174.     4.6 1.53504 -0.0001
  0.2583   2083.     4.8 1.53482 -0.0001
  0.2480   2000.     5.0 1.53459 -0.0001
  0.2384   1923.     5.2 1.53435 -0.0001
  0.2296   1852.     5.4 1.53411 -0.0001
  0.2214   1786.     5.6 1.53386 -0.0001
  0.2138   1724.     5.8 1.53361 -0.0001
  0.2066   1667.     6.0 1.53335 -0.0001
  0.2000   1613.     6.2 1.53308 -0.0001
  0.1937   1563.     6.4 1.53281 -0.0001
  0.1879   1515.     6.6 1.53253 -0.0001
  0.1823   1471.     6.8 1.53224 -0.0001
  0.1771   1429.     7.0 1.53194 -0.0001
  0.1722   1389.     7.2 1.53163 -0.0001
  0.1675   1351.     7.4 1.53132 -0.0001
  0.1631   1316.     7.6 1.53100 -0.0001
  0.1590   1282.     7.8 1.53067 -0.0001
  0.1550   1250.     8.0 1.53033 -0.0001
  0.1512   1220.     8.2 1.52998 -0.0001
  0.1476   1190.     8.4 1.52962 -0.0001
  0.1441   1163.     8.6 1.52926 -0.0001
  0.1409   1136.     8.8 1.52889 -0.0001
  0.1378   1111.     9.0 1.52851 -0.0001
  0.1348   1087.     9.2 1.52812 -0.0001
  0.1319   1064.     9.4 1.52772 -0.0001
  0.1300   1049.   9.536 -0.0001  2.5E-9
  0.1291   1042.     9.6 1.52731 -0.0001
  0.1284   1035.   9.657 -0.0001  2.0E-9
  0.1265   1020.     9.8 1.52689 -0.0001
  0.1240   1000.    10.0 1.52647 -0.0001
  0.1221   984.4  10.159 -0.0001  1.8E-9
  0.1216   980.4    10.2 1.52603 -0.0001
  0.1203   970.5  10.303 -0.0001  1.2E-9
  0.1192   961.5    10.4 1.52559 -0.0001
  0.1179   951.2  10.513 -0.0001  2.3E-9
  0.1171   944.2  10.591 -0.0001  1.0E-9
  0.1170   943.4    10.6 1.52514 -0.0001
  0.1148   925.9    10.8 1.52467 -0.0001
  0.1127   909.1    11.0 1.52420 -0.0001
  0.1107   892.9    11.2 1.52372 -0.0001
  0.1088   877.2    11.4 1.52323 -0.0001
  0.1069   862.1    11.6 1.52273 -0.0001
  0.1051   847.5    11.8 1.52222 -0.0001
  0.1033   833.3    12.0 1.52171 -0.0001
  0.1016   819.7    12.2 1.52118 -0.0001
 0.09999   806.5    12.4 1.52064 -0.0001
 0.09840   793.7    12.6 1.52009 -0.0001
 0.09686   781.3    12.8 1.51954 -0.0001
 0.09537   769.2    13.0 1.51897 -0.0001
 0.09393   757.6    13.2 1.51840 -0.0001
 0.09252   746.3    13.4 1.51781 -0.0001
 0.09116   735.3    13.6 1.51721 -0.0001
 0.08984   724.6    13.8 1.51661 -0.0001
 0.08856   714.3    14.0 1.51599 -0.0001
 0.08731   704.2    14.2 1.51536 -0.0001
 0.08610   694.4    14.4 1.51473 -0.0001
 0.08492   684.9    14.6 1.51408 -0.0001
 0.08377   675.7    14.8 1.51342 -0.0001
 0.08265   666.7    15.0 1.51275 -0.0001
 0.08157   657.9    15.2 1.51208 -0.0001
 0.08059    650.   15.38 -0.0001  5.5E-8
 0.08051   649.4    15.4 1.51139 -0.0001
 0.07948   641.0    15.6 1.51069 -0.0001
 0.07847   632.9    15.8 1.50998 -0.0001
 0.07749   625.0    16.0 1.50926 -0.0001
 0.07653   617.3    16.2 1.50852 -0.0001
 0.07560   609.8    16.4 1.50778 -0.0001
 0.07469   602.4    16.6 1.50703 -0.0001
 0.07439    600.   16.67 -0.0001  2.1E-7
 0.07380   595.2    16.8 1.50626 -0.0001
 0.07293   588.2    17.0 1.50548 -0.0001
 0.07208   581.4    17.2 1.50470 -0.0001
 0.07125   574.7    17.4 1.50390 -0.0001
 0.07044   568.2    17.6 1.50309 -0.0001
 0.06965   561.8    17.8 1.50227 -0.0001
 0.06888   555.6    18.0 1.50143 -0.0001
 0.06819    550.   18.18 -0.0001  7.8E-7
 0.06812   549.4    18.2 1.50059 -0.0001
 0.06738   543.5    18.4 1.49973 -0.0001
 0.06666   537.6    18.6 1.49886 -0.0001
 0.06595   531.9    18.8 1.49798 -0.0001
 0.06525   526.3    19.0 1.49709 -0.0001
 0.06457   520.8    19.2 1.49618 -0.0001
 0.06391   515.5    19.4 1.49526 -0.0001
 0.06326   510.2    19.6 1.49433 -0.0001
 0.06262   505.1    19.8 1.49339 -0.0001
 0.06199   500.0    20.0 1.49243 -0.0001
 0.06199   500.0    20.0 -0.0001  3.0E-6
 0.06048   487.8    20.5 1.48999 -0.0001
 0.05904   476.2    21.0 1.48746 -0.0001
 0.05767   465.1    21.5 1.48485 -0.0001
 0.05636   454.5    22.0 1.48215 -0.0001
 0.05579    450.   22.22 -0.0001  1.2E-5
 0.05510   444.4    22.5 1.47937 -0.0001
 0.05391   434.8    23.0 1.47650 -0.0001
 0.05276   425.5    23.5 1.47353 -0.0001
 0.05166   416.7    24.0 1.47047 -0.0001
 0.05060   408.2    24.5 1.46732 -0.0001
 0.04959   400.0    25.0 1.46406 -0.0001
 0.04959   400.0    25.0 -0.0001  4.8E-5
 0.04862   392.2    25.5 1.46070 -0.0001
 0.04769   384.6    26.0 1.45723 -0.0001
 0.04679   377.4    26.5 1.45366 -0.0001
 0.04592   370.4    27.0 1.44998 -0.0001
 0.04508   363.6    27.5 1.44618 -0.0001
 0.04428   357.1    28.0 1.44226 -0.0001
 0.04350   350.9    28.5 1.43821 -0.0001
 0.04339    350.   28.57 -0.0001  2.0E-4
 0.04275   344.8    29.0 1.43404 -0.0001
 0.04203   339.0    29.5 1.42974 -0.0001
 0.04133   333.3    30.0 1.42531 -0.0001
 0.04065   327.9    30.5 1.42073 -0.0001
 0.03999   322.6    31.0 1.41601 -0.0001
 0.03936   317.5    31.5 1.41114 -0.0001
 0.03874   312.5    32.0 1.40611 -0.0001
 0.03815   307.7    32.5 1.40091 -0.0001
 0.03757   303.0    33.0 1.39555 -0.0001
 0.03720    300.   33.33 -0.0001  8.5E-4
 0.03701   298.5    33.5 1.39001 -0.0001
 0.03647   294.1    34.0 1.38429 -0.0001
 0.03594   289.9    34.5 1.37838 -0.0001
 0.03542   285.7    35.0 1.37227 -0.0001
 0.03493   281.7    35.5 1.36595 -0.0001
 0.03444   277.8    36.0 1.35941 -0.0001
 0.03397   274.0    36.5 1.35264 -0.0001
 0.03351   270.3    37.0 1.34563 -0.0001
 0.03306   266.7    37.5 1.33837 -0.0001
 0.03263   263.2    38.0 1.33084 -0.0001
 0.03220   259.7    38.5 1.32304 -0.0001
 0.03179   256.4    39.0 1.31494 -0.0001
 0.03139   253.2    39.5 1.30653 -0.0001
 0.03100   250.0    40.0 1.29779 -0.0001
 0.03100   250.0    40.0    1.35  3.2E-3
 0.03061   246.9    40.5 1.28870 -0.0001
 0.03024   243.9    41.0 1.27924 -0.0001
 0.02988   241.0    41.5 1.26939 -0.0001
 0.02976    240.   41.67 1.33[6] -0.0001
 0.02952   238.1    42.0 1.25911 -0.0001
 0.02852    230.   43.48    1.30 -0.0001
 0.02728    220.   45.45    1.20  1.7E-2
 0.02604    210.   47.62    1.10  2.9E-2
 0.02480    200.   50.00    1.00  6.0E-2
 0.02418    195.   51.28    0.93    0.11
 0.02356    190.   52.63    0.90    0.18
 0.02294    185.   54.05    0.89    0.20
 0.02232    180.   55.55    0.83    0.22
 0.02170    175.   57.14    0.76    0.39
 0.02108    170.   58.82    0.76    0.44
 0.02046    165.   60.61    0.80    0.44
 0.01984    160.   62.50    0.76    0.47
 0.01922    155.   64.52    0.60    0.58
 0.01860    150.   66.67    0.48    0.72
 0.01798    145.   68.97    0.39    0.90
 0.01736    140.   71.43    0.32     1.2
 0.01674    135.   74.07    0.29     2.0
 0.01612    130.   76.92    0.30     2.0
 0.01550    125.   80.00    0.33     2.9
 0.01488    120.   83.33    0.65     4.3
 0.01426    115.   86.96    3.00     5.3
 0.01364    110.   90.91    5.50     1.0
 0.01302    105.   95.24    3.90    0.54
 0.01116    100.   100.0    3.40    0.33
 0.01177     95.   105.3    3.10    0.20
 0.01116     90.   111.1    2.80    0.15
 0.01054     85.   117.6    2.60    0.13
 0.009919     80.   125.0    2.52   0.125
 0.008679     70.   142.8    2.40    0.12
 0.007439     60.   166.7    2.35    0.11
 0.006199     50.   200.0    2.30  9.3E-2
 0.006199     50.   200.0 -0.0001  9.5E-2
 0.004959     40.   250.0    2.28  6.8E-2
 0.004959     40.   250.0 -0.0001  6.2E-2
 0.003720     30.   333.3    2.24  3.7E-2
 0.003720     30.   333.3 -0.0001  3.4E-2
 0.002480     20.   500.0    2.20  1.6E-2
 0.002480     20.   500.0 -0.0001  1.2E-2
 0.001240     10.   1000. -0.0001  4.2E-3
 0.001116     9.0   1111. -0.0001  3.7E-3
 0.0009919     8.0   1250. -0.0001  3.1E-3
 0.0008679     7.0   1429. -0.0001  2.6E-3
 0.0007439     6.0   1667. -0.0001  2.3E-3
 0.0006199     5.0   2000. -0.0001  1.8E-3
 0.0004959     4.0   2500. -0.0001  1.4E-3
 0.0004798    3.87   2584.    2.21 1.18E-3
 0.0003720     3.0   3333. -0.0001  1.1E-3
 0.0002480     2.0   5000. -0.0001  6.8E-4
 0.0002071    1.67   6000.    2.19 2.40E-4
 0.0001463    1.18   8500.    2.21 4.99E-4
 0.0001240     1.0  10000. -0.0001  3.4E-4
 0.0001116     0.9  11110. -0.0001  3.1E-4
 0.00009919     0.8  12500. -0.0001  2.8E-4
 0.00009919     0.8  12500.    2.20 1.43E-4
 0.00008679     0.7  14290. -0.0001  2.4E-4
 0.00007439     0.6  16670. -0.0001  2.3E-4
 0.00006199     0.5  20000. -0.0001  1.8E-4
 0.00004141   0.334  30000.    2.21 2.54E-4
 0.00003682   0.297  33200.    2.22 2.61E-4
