;UO 
;UO Li.ASC: Values of n and k for polycrystalline lithium from 
;UO various references in HOCII (pg. 351).  References are 16, 20.
;UO 
;UO From HANDBOOK OF OPTICAL CONSTANTS IN SOLIDS II edited by Edward D.
;UO Palik. Copyright (c) 1991 by Academic Press, Inc. Reproduced by
;UO permission of the publisher.
;UO --------------------------------------------------------------
;UO     eV             cm-1        um            n               k 
;UO --------------------------------------------------------------
;N  5
;L  Energy[eV]  Wavelength[cm-1]  Wavelength[um]  n  k  
  10000. 80655000. 0.0001240 0.9999990 1.14E-10
   9549. 77017000. 0.0001298 0.9999989 1.35E-10
   9117. 73533000. 0.0001360 0.9999989 1.60E-10
   8706. 70218000. 0.0001424 0.9999987 1.90E-10
   8313. 67049000. 0.0001492 0.9999986 2.28E-10
   7937. 64016000. 0.0001562 0.9999985 2.75E-10
   7579. 61128000. 0.0001636 0.9999983 3.31E-10
   7237. 58370000. 0.0001713 0.9999982 3.94E-10
   6910. 55733000. 0.0001794 0.9999980 4.67E-10
   6598. 53216000. 0.0001879 0.9999978 5.55E-10
   6300. 50813000. 0.0001968 0.9999976 6.59E-10
   6015. 48514000. 0.0002061 0.9999974 7.82E-10
   5744. 46328000. 0.0002159 0.9999971 9.29E-10
   5484. 44231000. 0.0002261 0.9999968 1.11E-09
   5237. 42239000. 0.0002368 0.9999965 1.34E-09
   5000. 40328000. 0.0002480 0.9999962 1.61E-09
   4775. 38513000. 0.0002597 0.9999958 1.94E-09
   4559. 36771000. 0.0002720 0.9999954 2.35E-09
   4353. 35109000. 0.0002848 0.9999949 2.83E-09
   4157. 33528000. 0.0002983 0.9999945 3.41E-09
   3969. 32012000. 0.0003124 0.9999939 4.12E-09
   3790. 30568000. 0.0003272 0.9999933 4.96E-09
   3619. 29189000. 0.0003426 0.9999927 5.98E-09
   3455. 27866000. 0.0003588 0.9999920 7.21E-09
   3299. 26608000. 0.0003758 0.9999912 8.69E-09
   3150. 25406000. 0.0003936 0.9999903 1.05E-08
   3008. 24261000. 0.0004122 0.9999894 1.26E-08
   2872. 23164000. 0.0004317 0.9999884 1.52E-08
   2742. 22116000. 0.0004521 0.9999872 1.84E-08
   2619. 21124000. 0.0004735 0.9999860 2.24E-08
   2500. 20164000. 0.0004959 0.9999846 2.71E-08
   2387. 19252000. 0.0005193 0.9999831 3.28E-08
   2280. 18389000. 0.0005439 0.9999815 3.98E-08
   2177. 17559000. 0.0005696 0.9999797 4.82E-08
   2078. 16760000. 0.0005965 0.9999777 5.84E-08
   1985. 16010000. 0.0006248 0.9999755 7.08E-08
   1895. 15284000. 0.0006543 0.9999731 8.56E-08
   1809. 14590000. 0.0006852 0.9999705 1.01E-07
   1728. 13937000. 0.0007176 0.9999676 1.22E-07
   1650. 13308000. 0.0007516 0.9999645 1.48E-07
   1575. 12703000. 0.0007871 0.9999610 1.80E-07
   1504. 12131000. 0.0008244 0.9999572 2.18E-07
   1436. 11582000. 0.0008633 0.9999530 2.65E-07
   1371. 11058000. 0.0009041 0.9999484 3.21E-07
   1309. 10558000. 0.0009469 0.9999434 3.88E-07
   1250. 10082000. 0.0009917 0.9999379 4.70E-07
   1194. 9630200. 0.001039 0.9999318 5.68E-07
   1140. 9194700. 0.001088 0.9999251 6.87E-07
   1088. 8775300. 0.001139 0.9999177 8.30E-07
   1039. 8380100. 0.001193 0.9999097 1.00E-06
   992.3 8003400. 0.001249 0.9999008 1.21E-06
   947.5 7642100. 0.001309 0.999891 1.46E-06
   904.7 7296900. 0.001370 0.999880 1.77E-06
   863.9 6967800. 0.001435 0.999869 2.14E-06
   824.9 6653200. 0.001503 0.999856 2.58E-06
   787.7 6353200. 0.001574 0.999841 3.12E-06
   752.1 6066100. 0.001649 0.999825 3.76E-06
   718.1 5791800. 0.001727 0.999808 4.54E-06
   685.7 5530500. 0.001808 0.999789 5.45E-06
   654.7 5280500. 0.001894 0.999768 6.59E-06
   625.1 5041700. 0.001983 0.999745 7.98E-06
   610.9 4927200. 0.002030 0.999733 8.75E-06
   596.9 4814300. 0.002077 0.999720 9.61E-06
   583.3 4704600. 0.002126 0.999706 1.05E-05
   570.0 4597300. 0.002175 0.999692 1.16E-05
   544.0 4387600. 0.002278 0.999661 1.39E-05
   519.7 4191600. 0.002386 0.999627 1.67E-05
   496.2 4002100. 0.002499 0.999590 2.01E-05
   473.8 3821400. 0.002617 0.999549 2.42E-05
   452.4 3648800. 0.002741 0.999504 2.92E-05
   432.9 3419500. 0.002870 0.999454 3.50E-05
   412.5 3327000. 0.003006 0.999399 4.20E-05
   393.8 3176200. 0.003148 0.999339 5.04E-05
   376.1 3033400. 0.003297 0.999273 6.03E-05
   359.1 2896300. 0.003453 0.999200 7.21E-05
   342.9 2765700. 0.003616 0.999120 8.61E-05
   327.4 2640600. 0.003787 0.999031 1.03E-04
   312.6 2521300. 0.003966 0.99893 1.23E-04
   298.5 2407500. 0.004154 0.99883 1.47E-04
   285.0 2298700. 0.004350 0.99871 1.76E-04
   272.1 2194600. 0.004556 0.99858 2.10E-04
   259.9 2096200. 0.004771 0.99844 2.49E-04
   248.1 2001000. 0.004997 0.99828 2.96E-04
   236.9 1910700. 0.005233 0.99811 3.52E-04
   226.2 1824400. 0.005481 0.99793 4.19E-04
   216.0 1742100. 0.005740 0.99772 4.98E-04
   206.2 1663100. 0.006012 0.99750 5.89E-04
   196.9 1588100. 0.006296 0.99726 6.96E-04
   188.0 1516300. 0.006594 0.99699 8.24E-04
   179.6 1448600. 0.006905 0.99671 9.75E-04
   171.4 1382400. 0.007232 0.99640 1.14E-03
   163.7 1320300. 0.007574 0.99607 1.35E-03
   156.3 1260600. 0.007932 0.99571 1.58E-03
   149.3 1204200. 0.008307 0.99532 1.86E-03
   142.5 1149300. 0.008700 0.99489 2.18E-03
   136.1 1097700. 0.009111 0.99444 2.57E-03
   129.9 1047700. 0.009542 0.99398 3.02E-03
   124.1 1000900. 0.009994 0.99349 3.53E-03
   118.5 955760. 0.01047 0.99297 4.13E-03
   113.1 912210. 0.01096 0.99245 4.81E-03
   108.0 871070. 0.01148 0.99181 5.58E-03
   103.1 831550. 0.01202 0.99108 6.63E-03
   98.47 794210. 0.01259 0.99057 8.05E-03
   94.03 758400. 0.01319 0.99025 9.81E-03
   89.78 724120. 0.01381 0.99065 1.18E-02
   85.73 691450. 0.01446 0.99152 1.31E-02
   81.85 660160. 0.01515 0.99210 1.40E-02
   78.16 630400. 0.01586 0.99233 1.47E-02
   74.63 601930. 0.01661 0.99202 1.60E-02
   71.26 574750. 0.01740 0.99169 1.85E-02
   68.04 548780. 0.01822 0.99257 2.28E-02
   64.97 524010. 0.01908 0.99707 2.66E-02
   62.04 500380. 0.01999   1.003 2.74E-02
   59.24 477800. 0.02093   1.019 2.66E-02
   56.56 456180. 0.02192   1.017 2.36E-02
   55.27 445780. 0.02243   1.026 2.18E-02
   54.01 435620. 0.02296   1.021 6.86E-04
   52.77 425620. 0.02349   1.014 7.23E-04
   51.57 415940. 0.02404   1.010 7.91E-04
    10.6  85897.  0.1164   0.753 8.00E-02
    10.4  83478.  0.1198   0.743   0.102
    10.1  81058.  0.1234   0.726   0.108
    9.75  78638.  0.1272   0.708   0.119
    9.45  76219.  0.1312   0.680   0.130
    9.15  73799.  0.1355   0.657   0.144
    8.85  71379.  0.1401   0.624   0.163
    8.55  68960.  0.1450   0.601   0.189
    8.25  66540.  0.1503   0.572   0.214
    7.95  64121.  0.1560   0.545   0.246
    7.65  61701.  0.1621   0.517   0.282
    7.35  59281.  0.1687   0.492   0.320
    7.05  56862.  0.1759   0.466   0.364
    6.75  54442.  0.1837   0.440   0.407
    6.45  52022.  0.1922   0.408   0.460
    6.15  49603.  0.2016   0.376   0.522
    5.85  47183.  0.2119   0.342   0.594
    5.55  44763.  0.2234   0.310   0.688
    5.25  42344.  0.2362   0.299   0.795
    4.95  39924.  0.2505   0.302   0.906
    4.65  37504.  0.2666   0.317    1.01
    4.35  35085.  0.2850   0.333    1.11
    4.05  32665.  0.3061   0.346    1.21
    3.75  30246.  0.3306   0.345    1.32
    3.45  27826.  0.3594   0.334    1.45
    3.15  25406.  0.3936   0.304    1.60
    2.85  22987.  0.4350   0.247    1.82
    2.55  20567.  0.4862   0.217    2.11
    2.25  18147.  0.5510   0.206    2.48
    1.95  15728.  0.6358   0.221    2.94
    1.65  13308.  0.7514   0.265    3.55
    1.35  10888.  0.9184   0.338    4.36
    1.05   8469.   1.181   0.448    5.58
   0.750   6049.   1.653   0.561    7.68
   0.540   4355.   2.296   0.661    12.6
   0.140   1129.   8.856   0.659    38.0
