;UO 
;UO MgO.ASC: Values of n and k for cubic magnesium oxide from various
;UO references in HOCII (pg. 943). References are 2, 32, 33, 34, 36,
;UO 37, 41, 42, 54, 56, 58, 59, 77, 78, 83, 85, 86, 91, 93, 96.
;UO 
;UO Copyright (c) 1995 by the Optical Society of America.  Data
;UO from HANDBOOK OF OPTICAL CONSTANTS IN SOLIDS II edited by Edward D.
;UO Palik. Copyright (c) 1991 by Academic Press, Inc. Reproduced by
;UO permission of the publisher.
;UO ----------------------------------------------------------------
;UO     eV     cm-1        um           n         k       
;UO ----------------------------------------------------------------
;N  5
;L  Energy[eV]  Wavelength[cm-1]  Wavelength[um]  n  k  
    586. 4726400. 0.002116 -0.0001 3.69E-04
    584. 4710200. 0.002123 -0.0001 3.86E-04
    582. 4694100. 0.002130 -0.0001 4.06E-04
    580. 4678000. 0.002138 -0.0001 4.25E-04
    579. 4669900. 0.002141 -0.0001 4.35E-04
    578. 4661800. 0.002145 -0.0001 4.42E-04
    576. 4645700. 0.002153 -0.0001 4.48E-04
    575. 4637700. 0.002156 -0.0001 4.47E-04
    574. 4629600. 0.002160 -0.0001 4.41E-04
    573. 4621500. 0.002164 -0.0001 4.31E-04
    572. 4613500. 0.002168 -0.0001 4.23E-04
    571. 4605400. 0.002171 -0.0001 4.29E-04
    570. 4597300. 0.002175 -0.0001 4.40E-04
    569. 4589300. 0.002179 -0.0001 4.44E-04
    568. 4581200. 0.002183 -0.0001 4.39E-04
   567.5 4577200. 0.002185 -0.0001 4.37E-04
    567. 4573100. 0.002187 -0.0001 4.40E-04
    565. 4557000. 0.002194 -0.0001 4.50E-04
    563. 4540900. 0.002202 -0.0001 4.66E-04
    562. 4532800. 0.002206 -0.0001 4.85E-04
    561. 4524700. 0.002210 -0.0001 5.27E-04
    560. 4516700. 0.002214 -0.0001 5.89E-04
    559. 4508600. 0.002218 -0.0001 6.29E-04
   558.2 4502200. 0.002221 -0.0001 6.35E-04
    558. 4500500. 0.002222 -0.0001 6.35E-04
    557. 4492500. 0.002226 -0.0001 6.13E-04
    556. 4484400. 0.002230 -0.0001 5.53E-04
    555. 4476300. 0.002234 -0.0001 4.99E-04
    554. 4468300. 0.002238 -0.0001 4.63E-04
    553. 4460200. 0.002242 -0.0001 4.27E-04
   552.5 4456200. 0.002244 -0.0001 4.20E-04
   552.4 4455400. 0.002245 -0.0001 4.19E-04
    552. 4452100. 0.002246 -0.0001 4.20E-04
    551. 4444100. 0.002250 -0.0001 4.35E-04
    550. 4436000. 0.002254 -0.0001 4.57E-04
    549. 4427900. 0.002258 -0.0001 4.97E-04
   548.5 4423900. 0.002260 -0.0001 5.75E-04
    548. 4419900. 0.002262 -0.0001 6.18E-04
   547.5 4415900. 0.002265 -0.0001 6.51E-04
    547. 4411800. 0.002267 -0.0001 6.36E-04
    546. 4403800. 0.002271 -0.0001 5.26E-04
    545. 4395700. 0.002275 -0.0001 4.32E-04
   544.5 4391700. 0.002277 -0.0001 4.10E-04
    544. 4387600. 0.002279 -0.0001 4.00E-04
    543. 4379600. 0.002283 -0.0001 4.62E-04
    542. 4371500. 0.002288 -0.0001 6.15E-04
    541. 4363400. 0.002292 -0.0001 8.19E-04
   540.5 4359400. 0.002294 -0.0001 9.50E-04
    540. 4355400. 0.002296 -0.0001 1.08E-03
   539.5 4351300. 0.002298 -0.0001 1.20E-03
   539.3 4349700. 0.002299 -0.0001 1.24E-03
   539.2 4348900. 0.002299 -0.0001 1.26E-03
    539. 4347300. 0.002300 -0.0001 1.25E-03
   538.5 4343300. 0.002302 -0.0001 1.18E-03
    538. 4339200. 0.002305 -0.0001 9.81E-04
   537.5 4335200. 0.002307 -0.0001 8.48E-04
    537. 4331200. 0.002309 -0.0001 7.41E-04
   536.5 4327100. 0.002311 -0.0001 6.37E-04
    536. 4323100. 0.002313 -0.0001 5.32E-04
   535.5 4319100. 0.002315 -0.0001 4.28E-04
    535. 4315000. 0.002317 -0.0001 3.23E-04
   534.5 4311000. 0.002320 -0.0001 2.30E-04
    534. 4307000. 0.002322 -0.0001 1.75E-04
    533. 4298900. 0.002326 -0.0001 1.40E-04
    530. 4274700. 0.002339 -0.0001 1.18E-04
    527. 4250500. 0.002353 -0.0001 1.08E-04
    524. 4226300. 0.002366 -0.0001 1.04E-04
    517. 4169900. 0.002398 -0.0001 1.03E-04
    513. 4137600. 0.002417 -0.0001 1.02E-04
    507. 4089200. 0.002445 -0.0001 1.06E-04
    503. 4056900. 0.002465 -0.0001 1.09E-04
    121. 975920. 0.01025 -0.0001   0.033
   118.5 955760. 0.01046 -0.0001   0.034
    116. 935600. 0.01069 -0.0001   0.035
    114. 919460. 0.01088 -0.0001   0.036
    112. 903330. 0.01107 -0.0001   0.037
    110. 887200. 0.01127 -0.0001   0.038
    108. 871070. 0.01148 -0.0001   0.040
   106.5 858970. 0.01164 -0.0001   0.041
    105. 846880. 0.01181 -0.0001   0.043
    104. 838810. 0.01192 -0.0001   0.045
   103.5 834780. 0.01198 -0.0001   0.045
   101.5 818650. 0.01222 -0.0001   0.043
    99.5 802520. 0.01246 -0.0001   0.045
     98. 790420. 0.01265 -0.0001   0.046
    96.5 778320. 0.01285 -0.0001   0.045
     95. 766220. 0.01305 -0.0001   0.045
    93.5 754210. 0.01326 -0.0001   0.046
     92. 742020. 0.01348 -0.0001   0.048
     90. 725890. 0.01378 -0.0001   0.051
    88.5 713790. 0.01401 -0.0001   0.052
     86. 693630. 0.01442 -0.0001   0.053
    84.5 681530. 0.01467 -0.0001   0.054
    82.5 665400. 0.01503 -0.0001   0.056
    80.5 649270. 0.01540 -0.0001   0.060
     80. 645240. 0.01550 -0.0001   0.061
    78.5 633140. 0.01579 -0.0001   0.065
    76.5 617010. 0.01621 -0.0001   0.069
     75. 604910. 0.01653   0.951   0.070
     74. 596850. 0.01675   0.952   0.070
     73. 588780. 0.01698   0.954   0.069
     72. 580710. 0.01722   0.954   0.069
     70. 564580. 0.01771   0.952   0.074
     68. 548450. 0.01823   0.952   0.077
     66. 532320. 0.01879   0.958   0.076
     65. 524260. 0.01907   0.962   0.073
     64. 516190. 0.01937   0.964   0.064
     63. 508130. 0.01968   0.965   0.063
     62. 500060. 0.02000   0.960   0.064
     61. 491990. 0.02033   0.950   0.067
     60. 483930. 0.02066   0.938   0.071
     59. 475860. 0.02101   0.925   0.081
     58. 467800. 0.02138   0.926   0.113
     57. 459730. 0.02175   0.954   0.117
     56. 451670. 0.02214   0.964   0.105
     55. 443600. 0.02254   0.964   0.105
    54.5 439570. 0.02275   0.965   0.104
     54. 435540. 0.02296   0.966   0.106
     53. 427470. 0.02339   0.975   0.109
     52. 419400. 0.02384   0.985   0.094
    51.5 415370. 0.02407   0.981   0.082
     51. 411340. 0.02431   0.972   0.079
     50. 403270. 0.02480   0.963   0.084
     49. 395210. 0.02530   0.960   0.083
     48. 387140. 0.02583   0.955   0.085
     47. 379080. 0.02638   0.950   0.084
     46. 371010. 0.02695   0.943   0.090
     45. 362950. 0.02755   0.940   0.088
     44. 354880. 0.02818   0.930   0.094
     43. 346820. 0.02883   0.926   0.103
     42. 338750. 0.02952   0.924   0.106
     41. 330680. 0.03024   0.918   0.113
     40. 322620. 0.03100   0.915   0.123
     39. 314550. 0.03179   0.916   0.129
     38. 306490. 0.03263   0.915   0.133
     37. 298420. 0.03351   0.912   0.138
     36. 290360. 0.03444   0.909   0.140
    35.5 286320. 0.03493   0.903   0.143
     35. 282290. 0.03542   0.898   0.153
     34. 274230. 0.03647   0.902   0.165
     33. 266160. 0.03757   0.908   0.169
     32. 258100. 0.03875   0.913   0.166
    31.5 254060. 0.03936   0.913   0.160
     31. 250030. 0.03999   0.909   0.153
    30.5 246000. 0.04065   0.901   0.145
     30. 241960. 0.04133   0.887   0.142
     29. 233900. 0.04275   0.862   0.142
     28. 225830. 0.04428   0.830   0.142
    27.5 221800. 0.04509   0.806   0.146
     27. 217770. 0.04592   0.781   0.155
    26.5 213740. 0.04679   0.754   0.168
     26. 209700. 0.04769   0.724   0.188
    25.5 205670. 0.04862   0.694   0.221
    25.0 201600. 0.04959   0.677   0.264
    24.9 200830. 0.04979   0.675   0.275
    24.8 200020. 0.04999   0.675   0.287
    24.5 197600. 0.05061   0.689   0.303
    24.3 195990. 0.05102   0.692   0.304
    24.1 194380. 0.05145   0.684   0.309
    24.0 193570. 0.05166   0.680   0.313
    23.9 192760. 0.05188   0.678   0.319
    23.7 191150. 0.05231   0.677   0.325
    23.5 189540. 0.05276   0.669   0.328
    23.3 187930. 0.05321   0.658   0.334
    23.0 185510. 0.05391   0.636   0.348
    22.7 183080. 0.05462   0.612   0.365
    22.5 181470. 0.05510   0.589   0.382
    22.2 179050. 0.05585   0.553   0.423
    22.0 177440. 0.05636   0.531   0.464
    21.8 175830. 0.05687   0.522   0.511
    21.6 174210. 0.05740   0.519   0.507
    21.5 173410. 0.05767   0.522   0.586
    21.4 172600. 0.05794   0.526   0.614
    21.3 171790. 0.05821   0.535   0.642
    21.2 170990. 0.05848   0.550   0.669
    21.1 170180. 0.05876   0.568   0.693
    21.0 169380. 0.05904   0.592   0.716
    20.9 168570. 0.05932   0.624   0.723
    20.8 167760. 0.05961   0.645   0.720
    20.7 166960. 0.05990   0.659   0.723
    20.6 166150. 0.06019   0.676   0.710
    20.5 165340. 0.06048   0.673   0.704
    20.4 164360. 0.06078   0.669   0.704
    20.3 163730. 0.06108   0.661   0.707
    20.2 162920. 0.06138   0.651   0.716
    20.0 161310. 0.06199   0.632   0.752
    19.9 160500. 0.06230   0.625   0.786
    19.8 159700. 0.06262   0.635   0.820
    19.7 158890. 0.06294   0.652   0.847
    19.6 158080. 0.06326   0.670   0.871
    19.5 157280. 0.06358   0.691   0.892
    19.4 156470. 0.06391   0.714   0.911
    19.3 155660. 0.06424   0.743   0.930
    19.2 154860. 0.06458   0.776   0.918
    19.1 154050. 0.06491   0.780   0.929
   19.05 153650. 0.06508   0.792   0.929
    19.0 153240. 0.06525   0.798   0.929
    18.9 152440. 0.06560   0.807   0.935
    18.8 151630. 0.06595   0.817   0.944
    18.7 150820. 0.06630   0.828   0.955
    18.6 150020. 0.06666   0.842   0.969
    18.5 149210. 0.06702   0.859   0.982
   18.35 148000. 0.06757   0.887   0.996
    18.2 146790. 0.06812   0.915   1.007
    18.1 145990. 0.06850   0.931   1.014
    18.0 145180. 0.06888   0.947   1.023
    17.9 144370. 0.06926   0.964   1.034
    17.8 143570. 0.06965   0.984   1.049
    17.7 142760. 0.07005   1.009   1.064
   17.65 142360. 0.07025   1.025   1.074
    17.6 141950. 0.07045   1.046   1.082
    17.5 141150. 0.07085   1.087   1.074
    17.4 140340. 0.07126   1.119   1.081
    17.3 139530. 0.07167   1.166   1.074
    17.2 138730. 0.07208   1.203   1.043
    17.1 137920. 0.07251   1.224   1.023
    17.0 137110. 0.07293   1.241   1.001
   16.95 136710. 0.07315   1.248   1.001
    16.9 136310. 0.07336   1.265   1.000
    16.8 135500. 0.07380   1.301   0.976
    16.7 134690. 0.07424   1.333   0.941
    16.6 133890. 0.07469   1.341   0.883
    16.5 133080. 0.07514   1.344   0.862
    16.4 132270. 0.07560   1.346   0.810
    16.3 131470. 0.07606   1.337   0.774
    16.2 130660. 0.07653   1.301   0.714
    16.1 129850. 0.07701   1.247   0.705
    16.0 129050. 0.07749   1.214   0.724
    15.9 128240. 0.07798   1.195   0.727
    15.8 127430. 0.07847   1.173   0.736
    15.7 126630. 0.07897   1.160   0.760
    15.5 125010. 0.07999   1.149   0.773
    15.4 124210. 0.08051   1.141   0.788
    15.3 123400. 0.08104   1.135   0.798
    15.2 122600. 0.08157   1.131   0.819
    15.1 121790. 0.08211   1.139   0.835
    15.0 120980. 0.08266   1.147   0.841
    14.9 120180. 0.08321   1.149   0.843
    14.8 119370. 0.08377   1.150   0.852
    14.7 118560. 0.08434   1.149   0.847
    14.6 117760. 0.08492   1.137   0.851
    14.5 116950. 0.08551   1.120   0.864
    14.4 116140. 0.08610   1.115   0.883
    14.3 115340. 0.08670   1.110   0.903
    14.2 114530. 0.08731   1.106   0.919
    14.1 113720. 0.08793   1.094   0.929
    14.0 112920. 0.08856   1.065   0.947
    13.9 112110. 0.08920   1.023   0.994
    13.8 111300. 0.08984   0.990   1.087
   13.75 110900. 0.09017   0.984   1.133
    13.7 110500. 0.09050   0.980   1.218
    13.6 109690. 0.09116   1.054   1.350
   13.55 109290. 0.09150   1.111   1.418
    13.5 108880. 0.09184   1.191   1.471
   13.45 108480. 0.09218   1.283   1.499
    13.4 108080. 0.09253   1.374   1.507
   13.35 107670. 0.09287   1.463   1.503
    13.3 107270. 0.09322   1.549   1.479
   13.25 106870. 0.09357   1.632   1.446
    13.2 106460. 0.09393   1.702   1.380
   13.15 106060. 0.09428   1.744   1.312
    13.1 105660. 0.09464   1.768   1.248
   13.05 105250. 0.09501   1.779   1.193
    13.0 104850. 0.09537   1.786   1.147
   12.95 104450. 0.09574   1.789   1.103
    12.9 104040. 0.09611   1.788   1.065
    12.8 103240. 0.09686   1.779   0.997
    12.6 101630. 0.09840   1.745   0.894
    12.5 100820. 0.09919   1.723   0.858
    12.4 100010.  0.1000   1.694   0.824
    12.1  97590.  0.1025   1.603   0.770
    12.0  96790.  0.1033   1.565   0.765
    11.9  95980.  0.1042   1.520   0.767
    11.8  95170.  0.1051   1.473   0.787
   11.65  93960.  0.1064   1.397   0.839
    11.6  93560.  0.1069   1.370   0.890
    11.5  92750.  0.1078   1.371   1.000
    11.4  91950.  0.1088   1.409   1.081
    11.3  91140.  0.1097   1.468   1.161
    11.2  90330.  0.1107   1.555   1.210
   11.15  89930.  0.1112   1.601   1.220
    11.1  89530.  0.1117   1.646   1.230
    11.0  88720.  0.1127   1.735   1.228
    10.9  87910.  0.1137   1.814   1.202
    10.8  87110.  0.1148   1.877   1.166
    10.5  84690.  0.1181   1.999   1.041
    10.2  82270.  0.1216   2.045   0.921
    10.0  80655.  0.1240   2.061   0.867
     9.8  79040.  0.1265   2.074   0.819
     9.7  78240.  0.1278   2.079   0.798
     9.5  76620.  0.1305   2.091   0.761
     9.3  75010.  0.1333   2.103   0.728
     9.0  72590.  0.1378   2.130   0.679
     8.8  70980.  0.1409   2.147   0.642
     8.5  68560.  0.1459   2.160   0.587
     8.2  66140.  0.1512   2.171   0.545
     8.1  65330.  0.1531   2.168   0.532
     8.0  64520.  0.1550   2.154   0.530
    7.95  64120.  0.1560   2.145   0.539
    7.90  63720.  0.1569   2.137   0.558
    7.85  63310.  0.1579   2.127   0.589
    7.83  63150.  0.1583   2.126   0.611
    7.80  62910.  0.1590   2.132   0.651
    7.75  62510.  0.1600   2.180   0.731
    7.70  62100.  0.1610   2.270   0.813
    7.68  61940.  0.1614   2.327   0.851
    7.66  61780.  0.1619   2.389   0.885
    7.64  61620.  0.1623   2.498   0.936
    7.63  61540.  0.1625   2.574   0.949
    7.62  61460.  0.1627   2.665   0.944
    7.61  61380.  0.1629   2.753   0.912
    7.60  61300.  0.1631   2.839   0.866
    7.59  61220.  0.1634   2.922   0.800
    7.58  61140.  0.1636   2.994   0.711
    7.57  61060.  0.1638   3.048   0.600
    7.56  60970.  0.1640   3.061   0.474
    7.55  60890.  0.1642   3.035   0.360
    7.54  60810.  0.1644   2.999   0.272
    7.53  60730.  0.1647   2.944   0.204
    7.52  60650.  0.1649   2.892   0.149
    7.50  60490.  0.1653   2.793 7.6E-02
    7.48  60330.  0.1658   2.701 3.9E-02
    7.45  60090.  0.1664   2.603 1.8E-02
    7.40  59680.  0.1675   2.494  2.E-03
    7.35  59280.  0.1687   2.419 -0.0001
    7.30  58880.  0.1698   2.363 -0.0001
    7.28  58720.  0.1703   2.346 1.36E-04
    7.25  58470.  0.1710   2.319 -0.0001
    7.20  58070.  0.1722   2.281 7.6E-05
   7.185  57950.  0.1726   2.269 6.87E-05
    7.15  57670.  0.1734   2.248 -0.0001
    7.14  57590.  0.1737   2.241 5.53E-05
    7.10  57260.  0.1746   2.220 -0.0001
    7.06  56940.  0.1757   2.198 4.19E-05
    7.05  56860.  0.1759   2.196 -0.0001
    7.00  56460.  0.1771   2.176 3.7E-05
    6.90  55650.  0.1797   2.141 -0.0001
    6.89  55560.  0.1800   2.138 2.86E-05
    6.80  54840.  0.1823   2.110 -0.0001
    6.70  54020.  0.1851   2.084 2.00E-05
    6.60  53220.  0.1879   2.060 -0.0001
    6.50  52440.  0.1907   2.039 1.39E-05
    6.40  51630.  0.1937   2.020 -0.0001
    6.20  50000.  0.2000   1.986 1.11E-05
    6.00  48390.  0.2066   1.958 1.0E-05
    5.80  46780.  0.2138   1.933 8.5E-06
    5.60  45170.  0.2214   1.911 7.0E-06
    5.50  44360.  0.2254   1.901 6.0E-06
    5.40  43550.  0.2296   1.892 5.0E-06
    5.20  41940.  0.2384   1.874 3.7E-06
    5.09  41050.  0.2436   1.865 3.2E-06
    5.00  40330.  0.2480   1.858 3.1E-06
    4.75  38310.  0.2610   1.840 -0.0001
    4.50  36290.  0.2755   1.824 -0.0001
    4.25  34280.  0.2917   1.810 -0.0001
    4.00  32260.  0.3100   1.798 -0.0001
    3.75  30250.  0.3306   1.785 -0.0001
   3.531  28480.  0.3511  1.7768 -0.0001
   3.487  28120.  0.3556  1.7755 8.5E-07
   3.435  27710.  0.3609  1.7732 5.75E-07
   3.433  27690. 0.36117 1.77318 5.65E-07
   3.397  27390. 0.36502 1.77186 4.9E-07
   3.245  26170.  0.3821  1.7668 2.75E-07
   3.206  25860.  0.3867  1.7655 2.45E-07
   3.152  25420.  0.3934  1.7638 2.2E-07
   3.064  24710.  0.4047 1.76104 1.95E-07
   2.877  23200.  0.4310  1.7557 1.7E-07
   2.845  22950.  0.4358 1.75471 1.65E-07
   2.708  21840.  0.4579  1.7512 1.45E-07
   2.594  20920.  0.4780  1.7483 1.15E-07
   2.551  20570.  0.4861 1.74711 1.0E-07
   2.541  20490.  0.4880  1.7469 9.75E-08
   2.480  20000.     0.5  1.7454 8.25E-08
   2.468  19900.  0.5024  1.7453 8.0E-08
   2.438  19660.  0.5085 1.74446 7.0E-08
   2.410  19440.  0.5145  1.7439 6.55E-08
   2.270  18310.  0.5461 1.74077 -0.0001
   2.104  16970.  0.5893 1.73737 -0.0001
   1.959  15800.  0.6328  1.7346 -0.0001
   1.926  15530.  0.6438 1.73400 -0.0001
   1.889  15240.  0.6563 1.73335 -0.0001
   1.857  14970.  0.6678 1.73277 -0.0001
   1.795  14480.  0.6907 1.73191 -0.0001
   1.755  14150.  0.7065 1.73101 -0.0001
   1.615  13020.  0.7679 1.72872 -0.0001
   1.240  10000.     1.0  1.7229 -0.0001
   1.223   9862. 1.01398 1.72259 -0.0001
   1.170   9434.    1.06  1.7217 -0.0001
   1.099   8860. 1.12866 1.72059 -0.0001
  0.9400   7581.   1.319  1.7177 7.1E-08
  0.9068   7314. 1.36728 1.71715 -0.0001
  0.8266   6667.     1.5  1.7153 -0.0001
  0.8106   6538. 1.52952 1.71496 -0.0001
  0.7999   6451.    1.55  1.7147 -0.0001
  0.7322   5905.  1.6932 1.71281 -0.0001
  0.7254   5851.  1.7092 1.71258 -0.0001
  0.6838   5515. 1.81307 1.71108 -0.0001
  0.6293   5076. 1.97009 1.70885 -0.0001
  0.6199   5000.     2.0  1.7085 -0.0001
  0.5512   4446. 2.24929 1.70470 -0.0001
  0.5332   4300. 2.32542 1.70350 -0.0001
  0.4959   4000.     2.5  1.7007 -0.0001
  0.4592   3704.     2.7  1.6973 1.1E-07
  0.4428   3571.     2.8  1.6954 -0.0001
  0.4133   3333.     3.0  1.6915 -0.0001
  0.3753   3027.  3.3033 1.68526 -0.0001
  0.3720   3000.   3.333  1.6846 -0.0001
  0.3596   2900.   3.448  1.6820 -0.0001
  0.3542   2857.     3.5  1.6806 -0.0001
  0.3535   2851.  3.5078 1.68055 -0.0001
  0.3472   2800.   3.571  1.6791 -0.0001
  0.3348   2700.   3.704  1.6758 -0.0001
  0.3263   2632.     3.8  1.6734 2.0E-08
  0.3224   2600.   3.846  1.6722 -0.0001
  0.3100   2500.     4.0  1.6679 3.7E-08
  0.2976   2400.   4.167  1.6634 7.4E-08
  0.2912   2349.   4.258 1.66039 1.0E-07
  0.2852   2300.   4.348  1.6581 1.5E-07
  0.2755   2222.     4.5  1.6533 2.5E-07
  0.2728   2200.   4.545  1.6520 2.9E-07
  0.2604   2100.   4.762  1.6450 5.8E-07
  0.2480   2000.     5.0  1.6373 1.2E-06
  0.2418   1950.   5.128  1.6328 1.63E-06
  0.2380   1920.   5.208  1.6299 2.0E-06
  0.2356   1900.   5.263  1.6278 2.3E-06
  0.2331   1880.   5.319  1.6256 2.7E-06
  0.2306   1860.   5.376  1.6233 3.1E-06
  0.2281   1840.   5.435  1.6210 3.5E-06
  0.2257   1820.   5.495  1.6186 4.0E-06
  0.2231   1800.   5.555  1.6161 4.6E-06
  0.2207   1780.   5.618  1.6135 5.3E-06
  0.2182   1760.   5.682  1.6108 6.1E-06
  0.2157   1740.   5.747  1.6080 7.1E-06
  0.2132   1720.   5.814  1.6051 8.1E-06
  0.2108   1700.   5.882  1.6021 9.0E-06
  0.2083   1680.   5.952  1.5989 1.1E-05
  0.2058   1660.   6.024  1.5957 1.2E-05
  0.2033   1640.   6.098  1.5922 1.4E-05
  0.2008   1620.   6.172  1.5887 1.6E-05
  0.1984   1600.   6.250  1.5849 1.83E-05
  0.1959   1580.   6.329  1.5811 2.2E-05
  0.1934   1560.   6.410  1.5770 2.5E-05
  0.1909   1540.   6.494  1.5727 2.9E-05
  0.1884   1520.   6.579  1.5683 3.3E-05
  0.1860   1500.   6.667  1.5636 4.60E-05
  0.1835   1480.   6.757  1.5510 5.38E-05
  0.1810   1460.   6.849  1.5536 5.98E-05
  0.1785   1440.   6.944   1.548 7.00E-05
  0.1760   1420.   7.042   1.543 7.89E-05
  0.1736   1400.   7.143   1.537 8.59E-05
  0.1711   1380.   7.246   1.530 9.30E-05
  0.1686   1360.   7.352   1.524 1.03E-04
  0.1661   1340.   7.463   1.517 1.15E-04
  0.1637   1320.   7.576   1.509 1.31E-04
  0.1612   1300.   7.692   1.502 1.54E-04
  0.1587   1280.   7.812   1.493 1.84E-04
  0.1562   1260.   7.936   1.485 2.11E-04
  0.1537   1240.   8.065   1.475 2.47E-04
  0.1513   1220.   8.197   1.465 2.73E-04
  0.1488   1200.   8.333   1.455 3.09E-04
  0.1463   1180.   8.475   1.443 3.26E-04
  0.1438   1160.   8.621   1.431 3.52E-04
  0.1413   1140.   8.772   1.418 4.14E-04
  0.1389   1120.   8.929   1.404 5.76E-04
  0.1364   1100.   9.091   1.389 6.27E-04
  0.1339   1080.   9.259   1.373 8.47E-04
  0.1314   1060.   9.434   1.355 1.07E-03
  0.1302   1050.   9.524   1.346 1.33E-03
  0.1289   1040.   9.615   1.336 1.58E-03
  0.1277   1030.   9.709   1.326 1.92E-03
  0.1265   1020.   9.804   1.315 2.44E-03
  0.1252   1010.   9.901   1.304 3.02E-03
  0.1240   1000.   10.00   1.292 3.90E-03
  0.1227    990.   10.10   1.280 4.70E-03
  0.1215    980.   10.20   1.267 5.13E-03
  0.1202    970.   10.31   1.253 4.29E-03
  0.1190    960.   10.42   1.239 3.55E-03
  0.1178    950.   10.53   1.224 3.40E-03
  0.1165    940.   10.64   1.209 3.70E-03
  0.1153    930.   10.75   1.191 4.58E-03
  0.1141    920.   10.87   1.174 5.91E-03
  0.1128    910.   10.99   1.155 7.80E-03
  0.1116    900.   11.11   1.135 1.02E-02
  0.1103    890.   11.24   1.114 1.37E-02
  0.1091    880.   11.36   1.091 1.62E-02
  0.1079    870.   11.49   1.067 1.96E-02
  0.1066    860.   11.63   1.041 2.23E-02
  0.1060    855.   11.70   1.027 2.29E-02
  0.1054    850.   11.76   1.013 2.27E-02
  0.1041    840.   11.90   0.982 2.05E-02
  0.1029    830.   12.05   0.949 1.71E-02
  0.1017    820.   12.20   0.913 1.47E-02
  0.1010    815.   12.27   0.893 1.43E-02
  0.1004    810.   12.35   0.873 1.46E-02
  0.0992    800.   12.50   0.829 1.67E-02
  0.0979    790.   12.66   0.780 2.36E-02
  0.0967    780.   12.82   0.724 2.95E-02
  0.0955    770.   12.99   0.660 3.46E-02
  0.0930    750.   13.33   0.503 4.75E-02
  0.0918    740.   13.51   0.393 9.13E-02
  0.0905    730.   13.70   0.267   0.172
  0.0893    720.   13.89   0.156   0.317
  0.0880    710.   14.08   0.139   0.478
  0.0868    700.   14.29   0.132   0.595
  0.0856    690.   14.49   0.134   0.692
  0.0843    680.   14.71   0.136   0.787
  0.0831    670.   14.93   0.143   0.877
  0.0818    660.   15.15   0.154   0.955
  0.0806    650.   15.38   0.155    1.03
  0.0794    640.   15.63   0.151    1.09
  0.0781    630.   15.87   0.135    1.17
  0.0769    620.   16.13   0.116    1.26
  0.0756    610.   16.39   0.108    1.35
  0.0744    600.   16.67   0.098    1.45
  0.0732    590.   16.95   0.086    1.56
  0.0719    580.   17.24   0.087    1.67
  0.0707    570.   17.54   0.086    1.78
  0.0694    560.   17.86   0.088    1.90
  0.0682    550.   18.18   0.089    2.03
  0.0670    540.   18.52   0.091    2.16
  0.0657    530.   18.87   0.093    2.31
  0.0645    520.   19.23   0.097    2.47
  0.0632    510.   19.61   0.102    2.64
  0.0620    500.   20.00   0.109    2.84
  0.0608    490.   20.41   0.119    3.06
  0.0595    480.   20.83   0.131    3.31
  0.0583    470.   21.28   0.148    3.60
  0.0570    460.   21.74   0.170    3.95
  0.0558    450.   22.22   0.207    4.39
  0.0546    440.   22.73   0.261    4.95
  0.0533    430.   23.26   0.362    5.71
  0.0521    420.   23.81   0.543    6.86
  0.0508    410.   24.39    1.01    8.97
  0.0496    400.   25.00    5.05   15.20
  0.0484    390.   25.64   13.50    4.06
  0.0471    380.   26.32    9.28    1.02
  0.0459    370.   27.03    7.44    0.56
  0.0446    360.   27.78    6.46   0.379
  0.0434    350.   28.57    5.83   0.266
  0.0425    340.   29.41    5.35   0.208
  0.0409    330.   30.30    5.03   0.168
  0.0397    320.   31.25    4.74   0.129
  0.0384    310.   32.26    4.51   0.126
  0.0372    300.   33.33    4.36   0.113
  0.0335    270.   37.04    3.97 2.9E-02
  0.0322    260.   38.46    3.87 2.76E-02
  0.0310    250.   40.00    3.78 2.65E-02
  0.0298    240.   41.67    3.71 2.54E-02
  0.0285    230.   43.47    3.64 2.33E-02
  0.0273    220.   45.46    3.58 2.15E-02
  0.0260    210.   47.62    3.53 2.14E-02
  0.0248    200.   50.00    3.48 2.18E-02
  0.0236    190.   52.63    3.44 2.20E-02
  0.0223    180.   55.56    3.40 2.36E-02
  0.0211    170.   58.82    3.37 2.55E-02
  0.0198    160.   62.50    3.34 2.46E-02
  0.0186    150.   66.67    3.31 2.80E-02
  0.0174    140.   71.43    3.28 2.99E-02
  0.0161    130.   76.92    3.26 3.13E-02
  0.0149    120.   83.33    3.24 3.38E-02
  0.0136    110.   90.91    3.22 3.87E-02
  0.0130    105.   95.24    3.21 4.55E-02
  0.0124    100.   100.0    3.20 3.56E-02
  0.0118     95.   105.2    3.20 2.36E-02
  0.0112     90.   111.1    3.19 1.46E-02
  0.0105     85.   117.6    3.18 6.2E-03
 0.00992     80.   125.0   3.178 4.8E-03
 0.00930     75.   133.3   3.172 3.9E-03
 0.00868     70.   142.9   3.167 3.42E-03
 0.00806     65.   153.8   3.162 3.15E-03
 0.00744     60.   166.7   3.157 2.80E-03
 0.00682     55.   181.8   3.153 2.53E-03
 0.00620     50.   200.0   3.149 2.28E-03
 0.00558     45.   222.2   3.146 2.00E-03
 0.00496     40.   250.0   3.143 1.79E-03
 0.00434     35.   285.7   3.140 1.51E-03
 0.00372     30.   333.3   3.138 1.21E-03
 0.00310     25.   400.0   3.136 9.8E-04
 0.00248     20.   500.0   3.134 7.3E-04
 0.00198     16.   625.0   3.133 5.8E-04
