;UO 
;UO Mo.ASC: Values of n and k for polycrystalline molybdenum from
;UO various references in HOCI (pg. 306). References are 10, 19, 31.
;UO 
;UO From HANDBOOK OF OPTICAL CONSTANTS IN SOLIDS edited by Edward D.
;UO Palik. Copyright (c) 1985 by Academic Press, Inc. Reproduced by
;UO permission of the publisher.
;UO --------------------------------------------------------------
;UO      eV   cm-1        um           n             k
;UO --------------------------------------------------------------
;N  5
;L  Energy[eV]  Wavelength[cm-1]  Wavelength[um]  n  k  
   2000. 16130000. 0.0006199 0.999622 4.84E-5
   1952. 15740000. 0.0006351 0.999600 5.26E-5
   1905. 15360000. 0.0006508 0.999577 5.73E-5
   1860. 15000000. 0.0006665 0.999555 6.22E-5
   1851. 14930000. 0.0006831 0.999530 6.77E-5
   1772. 14290000. 0.0006997 0.999505 7.36E-5
   1730. 13950000. 0.0007166 0.999479 7.99E-5
   1688. 13610000. 0.0007345 0.999451 8.69E-5
   1648. 13290000. 0.0007523 0.999423 9.44E-5
   1609. 12980000. 0.0007705 0.999393 1.02E-4
   1570. 12660000. 0.0007897 0.999361 1.11E-4
   1533. 12360000. 0.0008087 0.999329 1.21E-4
   1496. 12070000. 0.0008287 0.999294 1.31E-4
   1460. 11780000. 0.0008492 0.999258 1.43E-4
   1426. 11500000. 0.0008694 0.999222 1.54E-4
   1392. 11230000. 0.0008906 0.999183 1.68E-4
   1358. 10950000. 0.0009129 0.999142 1.82E-4
   1326. 10690000. 0.0009350 0.999100 1.97E-4
   1294. 10440000. 0.0009581 0.999055 2.14E-4
   1263. 10190000. 0.0009816 0.999008 2.32E-4
   1233. 9945000. 0.001005 0.99896 2.52E-4
   1204. 9711000. 0.001030 0.99891 2.72E-4
   1175. 9477000. 0.001055 0.99886 2.95E-4
   1147. 9251000. 0.001081 0.99880 3.19E-4
   1119. 9025000. 0.001108 0.99875 3.47E-4
   1093. 8816000. 0.001134 0.99869 3.75E-4
   1067. 8606000. 0.001162 0.99863 4.06E-4
   1041. 8396000. 0.001191 0.99856 4.40E-4
   1016. 8194000. 0.001220 0.99850 4.77E-4
    992. 8001000. 0.001250 0.99843 5.15E-4
    968. 7807000. 0.001281 0.99836 5.57E-4
    945. 7622000. 0.001312 0.99829 6.02E-4
    923. 7444000. 0.001343 0.99821 6.49E-4
    901. 7267000. 0.001376 0.99813 7.01E-4
    879. 7090000. 0.001410 0.99805 7.59E-4
    858. 6920000. 0.001445 0.99797 8.19E-4
    838. 6759000. 0.001479 0.99789 8.83E-4
    818. 6598000. 0.001516 0.99781 9.53E-4
    798. 6436000. 0.001554 0.99772 1.03E-3
    779. 6283000. 0.001592 0.99764 1.11E-3
    760. 6130000. 0.001631 0.99755 1.19E-3
    742. 5985000. 0.001671 0.99747 1.27E-3
    725. 5847000. 0.001710 0.99738 1.35E-3
    707. 5702000. 0.001754 0.99728 1.44E-3
    690. 5565000. 0.001797 0.99718 1.54E-3
    674. 5436000. 0.001839 0.99708 1.64E-3
    658. 5307000. 0.001884 0.99699 1.75E-3
    642. 5178000. 0.001931 0.99688 1.87E-3
    627. 5057000. 0.001977 0.99678 1.99E-3
    612. 4936000. 0.002026 0.99668 2.13E-3
    597. 4815000. 0.002077 0.99658 2.28E-3
    583. 4702000. 0.002127 0.99649 2.43E-3
    569. 4589000. 0.002179 0.99639 2.59E-3
    555. 4476000. 0.002234 0.99631 2.77E-3
    542. 4371000. 0.002287 0.99625 2.95E-3
    529. 4267000. 0.002344 0.99621 3.15E-3
    516. 4162000. 0.002403 0.99622 3.28E-3
    504. 4065000. 0.002460 0.99618 3.38E-3
    492. 3968000. 0.002520 0.99612 3.48E-3
    480. 3871000. 0.002583 0.99604 3.59E-3
    469. 3783000. 0.002643 0.99595 3.69E-3
    458. 3694000. 0.002707 0.99583 3.80E-3
    447. 3650000. 0.002774 0.99568 3.95E-3
    436. 3517000. 0.002844 0.99554 4.16E-3
    426. 3436000. 0.002910 0.99544 4.37E-3
    415. 3347000. 0.002987 0.99535 4.61E-3
    406. 3275000. 0.003054 0.99528 4.83E-3
    396. 3194000. 0.003131 0.99526 5.09E-3
    386. 3113000. 0.003212 0.99528 5.28E-3
    377. 3041000. 0.003289 0.99529 5.41E-3
    368. 2968000. 0.003369 0.99526 5.55E-3
    359. 2895000. 0.003453 0.99522 5.70E-3
    351. 2831000. 0.003532 0.99518 5.84E-3
    342. 2758000. 0.003625 0.99514 6.00E-3
    334. 2694000. 0.003712 0.99512 6.15E-3
    326. 2629000. 0.003803 0.99510 6.31E-3
    318. 2565000. 0.003899 0.99511 6.48E-3
    311. 2508000. 0.003986 0.99517 6.63E-3
    303. 2444000. 0.004092 0.99541 6.82E-3
    296. 2387000. 0.004188 0.99558 6.63E-3
    289. 2331000. 0.004290 0.99569 6.39E-3
    282. 2274000. 0.004396 0.99568 6.15E-3
    275. 2218000. 0.004508 0.99565 5.85E-3
    269. 2170000. 0.004609 0.99552 5.43E-3
    262. 2113000. 0.004732 0.99520 4.98E-3
    256. 2065000. 0.004843 0.99480 4.61E-3
    250. 2016000. 0.004959 0.99433 4.26E-3
    244. 1968000. 0.005081 0.99379 3.93E-3
    238. 1920000. 0.005209 0.99315 3.62E-3
    232. 1871000. 0.005344 0.99243 3.33E-3
    227. 1831000. 0.005462 0.99176 3.10E-3
    221. 1782000. 0.005610 0.99085 2.83E-3
    216. 1742000. 0.005740  0.9900 2.60E-3
    211. 1702000. 0.005876  0.9890 2.40E-3
    206. 1661000. 0.006018  0.9879 2.58E-3
    201. 1621000. 0.006168  0.9869 2.69E-3
    196. 1581000. 0.006325  0.9859 2.80E-3
    191. 1540000. 0.006491  0.9848 2.91E-3
    187. 1508000. 0.006630  0.9839 3.00E-3
    182. 1468000. 0.006812  0.9828 3.12E-3
    178. 1436000. 0.006965  0.9818 3.22E-3
    174. 1403000. 0.007125  0.9807 3.33E-3
    170. 1371000. 0.007293  0.9795 3.45E-3
    166. 1339000. 0.007469  0.9783 3.60E-3
    162. 1307000. 0.007653  0.9770 3.75E-3
    158. 1274000. 0.007847  0.9757 3.92E-3
    154. 1242000. 0.008051  0.9742 4.10E-3
    150. 1210000. 0.008265  0.9726 4.28E-3
    147. 1186000. 0.008434  0.9713 4.42E-3
    143. 1153000. 0.008670  0.9695 4.62E-3
    140. 1129000. 0.008856  0.9680 4.78E-3
    136. 1097000. 0.009116  0.9659 5.01E-3
    133. 1073000. 0.009322  0.9641 5.19E-3
    130. 1048000. 0.009537  0.9623 5.38E-3
    127. 1024000. 0.009762  0.9603 5.59E-3
    124. 1000000. 0.009998  0.9581 5.80E-3
    121. 975900. 0.01025  0.9557 6.03E-3
    118. 951700. 0.01051  0.9532 6.28E-3
    115. 927500. 0.01078  0.9504 6.54E-3
    112. 903300. 0.01107  0.9473 6.90E-3
    110. 887200. 0.01127  0.9451 7.19E-3
    107. 863000. 0.01159  0.9415 7.64E-3
    104. 838800. 0.01192  0.9377 8.14E-3
    102. 822700. 0.01215  0.9349 8.50E-3
    100. 806550. 0.01240  0.9318 8.89E-3
    60.0 483900. 0.02066   0.897   0.106
    50.0 403300. 0.02480   0.868   0.151
    45.0 362900. 0.02755   0.850   0.187
    40.0 322600. 0.03100   0.828   0.235
    39.5 318600. 0.03139   0.823   0.241
    39.0 314500. 0.03179   0.818   0.250
    38.5 310500. 0.03220   0.813   0.261
    38.0 306500. 0.03263   0.810   0.273
   37.75 304500. 0.03284   0.809   0.281
    37.5 302500. 0.03306   0.808   0.289
   37.25 300400. 0.03328   0.809   0.297
    37.0 298400. 0.03351   0.810   0.303
   36.75 296400. 0.03374   0.811   0.312
    36.5 294400. 0.03397   0.812   0.321
   36.25 292400. 0.03420   0.815   0.331
    36.0 290400. 0.03444   0.819   0.341
    35.8 288700. 0.03463   0.825   0.350
    35.6 287100. 0.03483   0.831   0.358
    35.4 285500. 0.03502   0.841   0.367
    35.2 283900. 0.03522   0.853   0.373
    35.0 282300. 0.03542   0.867   0.375
    34.8 280700. 0.03563   0.880   0.373
    34.6 279100. 0.03583   0.893   0.368
    34.4 277400. 0.03604   0.901   0.360
    34.2 275800. 0.03625   0.907   0.352
    34.0 274200. 0.03647   0.911   0.344
    33.8 272600. 0.03668   0.912   0.334
    33.6 271000. 0.03690   0.910   0.326
    33.5 270200. 0.03701   0.907   0.322
    33.4 269400. 0.03712   0.903   0.321
    33.2 267800. 0.03734   0.897   0.323
    33.0 266200. 0.03757   0.896   0.327
    32.8 264500. 0.03780   0.898   0.330
    32.6 262900. 0.03803   0.901   0.331
    32.4 261300. 0.03827   0.907   0.331
    32.2 259700. 0.03850   0.912   0.327
    32.0 258100. 0.03875   0.915   0.323
   31.75 256100. 0.03905   0.918   0.315
    31.5 254100. 0.03936   0.919   0.307
   31.25 252000. 0.03968   0.918   0.298
    31.0 250000. 0.04000   0.915   0.288
   30.75 248000. 0.04032   0.909   0.279
    30.5 246000. 0.04065   0.902   0.271
   30.25 244000. 0.04099   0.892   0.263
    30.0 242000. 0.04133   0.879   0.259
   29.75 239900. 0.04168   0.868   0.256
    29.5 237900. 0.04203   0.855   0.257
   29.25 235900. 0.04239   0.844   0.256
    29.0 233900. 0.04275   0.832   0.259
   28.75 231900. 0.04313   0.822   0.261
    28.5 229900. 0.04350   0.811   0.263
   28.25 227800. 0.04389   0.799   0.265
    28.0 225800. 0.04428   0.788   0.269
   27.75 223800. 0.04468   0.776   0.272
    27.5 221800. 0.04509   0.764   0.276
   27.25 219800. 0.04550   0.750   0.281
    27.0 217800. 0.04592   0.734   0.289
   26.75 215700. 0.04635   0.721   0.298
    26.5 213700. 0.04679   0.706   0.308
   26.25 211700. 0.04723   0.694   0.319
    26.0 209700. 0.04769   0.680   0.329
    25.8 208100. 0.04806   0.666   0.341
    25.6 206500. 0.04843   0.656   0.353
    25.4 204900. 0.04881   0.645   0.367
    25.2 203200. 0.04920   0.636   0.380
    25.0 201600. 0.04959   0.624   0.393
    24.8 200000. 0.04999   0.612   0.410
    24.6 198400. 0.05040   0.603   0.429
    24.4 196800. 0.05081   0.596   0.447
    24.2 195200. 0.05123   0.588   0.468
    24.0 193600. 0.05166   0.583   0.491
    23.8 192000. 0.05209   0.581   0.511
    23.6 190300. 0.05254   0.579   0.532
    23.4 188700. 0.05299   0.579   0.553
    23.2 187100. 0.05344   0.579   0.575
    23.0 185500. 0.05391   0.582   0.595
    22.8 183900. 0.05438   0.586   0.614
    22.6 182300. 0.05486   0.589   0.633
    22.4 180700. 0.05535   0.594   0.650
    22.2 179000. 0.05585   0.596   0.668
    22.0 177400. 0.05636   0.602   0.685
    21.8 175800. 0.05687   0.607   0.700
    21.6 174200. 0.05740   0.608   0.715
    21.4 172600. 0.05794   0.609   0.733
    21.2 171000. 0.05848   0.610   0.752
    21.0 169400. 0.05904   0.612   0.773
    20.8 167800. 0.05961   0.616   0.794
    20.6 166100. 0.06019   0.621   0.815
    20.4 164500. 0.06078   0.626   0.838
    20.2 162900. 0.06138   0.632   0.862
    20.0 161300. 0.06199   0.639   0.887
    19.8 159700. 0.06262   0.648   0.913
    19.6 158100. 0.06326   0.660   0.940
    19.4 156500. 0.06391   0.674   0.968
    19.2 154900. 0.06458   0.691   0.996
    19.0 153200. 0.06526   0.712    1.02
    18.8 151600. 0.06595   0.737    1.05
    18.6 150000. 0.06666   0.766    1.08
    18.4 148400. 0.06738   0.799    1.10
    18.2 146800. 0.06812   0.833    1.11
    18.0 145200. 0.06888   0.866    1.12
    17.8 143600. 0.06965   0.903    1.13
    17.6 141900. 0.07045   0.940    1.14
    17.4 140300. 0.07126   0.978    1.14
    17.2 138700. 0.07208    1.01    1.13
    17.0 137100. 0.07293    1.04    1.12
    16.8 135500. 0.07380    1.07    1.11
    16.6 133900. 0.07469    1.10    1.10
    16.4 132300. 0.07560    1.12    1.08
    16.2 130700. 0.07653    1.13    1.06
    16.0 129000. 0.07749    1.14    1.04
    15.8 127400. 0.07847    1.15    1.02
    15.6 125800. 0.07948    1.15    1.01
    15.4 124200. 0.08051    1.15   0.994
    15.2 122600. 0.08157    1.14   0.989
    15.0 121000. 0.08266    1.14   0.987
    14.8 119400. 0.08377    1.14   0.987
    14.6 117800. 0.08492    1.13   0.990
    14.4 116100. 0.08610    1.13   0.997
    14.2 114500. 0.08731    1.14    1.01
    14.0 112900. 0.08856    1.15    1.01
    13.8 111300. 0.08984    1.15    1.02
    13.6 109700. 0.09117    1.17    1.02
    13.4 108100. 0.09253    1.18    1.02
    13.2 106500. 0.09393    1.20    1.03
    13.0 104800. 0.09537    1.21    1.02
    12.8 103200. 0.09686    1.23    1.01
    12.6 101600. 0.09840    1.24   0.993
    12.4 100000. 0.09999    1.25   0.975
    12.2  98400.  0.1016    1.26   0.953
    12.0  96790.  0.1033    1.26   0.921
    11.8  95170.  0.1051    1.25   0.886
    11.6  93560.  0.1069    1.23   0.845
    11.4  91950.  0.1088    1.18   0.802
    11.2  90330.  0.1107    1.12   0.782
    11.0  88720.  0.1127    1.05   0.774
    10.8  87110.  0.1148   0.977   0.791
    10.6  85490.  0.1170   0.909   0.835
    10.4  83880.  0.1192   0.859   0.881
    10.2  82270.  0.1216   0.812   0.930
    10.0  80655.  0.1240   0.770   0.987
     9.8  79040.  0.1265   0.735    1.05
     9.6  77430.  0.1291   0.707    1.12
     9.4  75820.  0.1319   0.685    1.19
     9.2  74200.  0.1348   0.670    1.25
     9.0  72590.  0.1378   0.652    1.33
     8.8  70980.  0.1409   0.647    1.41
     8.6  69360.  0.1442   0.649    1.49
     8.4  67750.  0.1476   0.659    1.57
     8.2  66140.  0.1512   0.672    1.65
     8.0  64520.  0.1550   0.685    1.73
     7.9  63720.  0.1569   0.697    1.77
     7.8  62910.  0.1590   0.711    1.81
     7.7  62100.  0.1610   0.726    1.85
     7.6  61300.  0.1631   0.745    1.90
     7.5  60490.  0.1653   0.781    1.93
     7.4  59680.  0.1675   0.808    1.95
     7.3  58880.  0.1698   0.816    1.96
     7.2  58070.  0.1722   0.813    1.98
     7.1  57260.  0.1746   0.808    2.00
     7.0  56460.  0.1771   0.798    2.04
     6.9  55650.  0.1797   0.791    2.08
     6.8  54840.  0.1823   0.784    2.12
     6.7  54040.  0.1851   0.777    2.18
     6.6  53230.  0.1879   0.779    2.24
     6.5  52430.  0.1907   0.783    2.30
     6.4  51620.  0.1937   0.789    2.36
     6.3  50810.  0.1968   0.798    2.43
     6.2  50010.  0.2000   0.813    2.50
     6.1  49200.  0.2033   0.836    2.57
     6.0  48390.  0.2066   0.850    2.64
     5.9  47590.  0.2101   0.873    2.72
     5.8  46780.  0.2138   0.895    2.80
     5.7  45970.  0.2175   0.924    2.89
     5.6  45170.  0.2214   0.959    2.99
     5.5  44360.  0.2254    1.00    3.09
     5.4  43550.  0.2296    1.06    3.20
     5.3  42750.  0.2339    1.13    3.31
     5.2  41940.  0.2384    1.22    3.42
     5.1  41130.  0.2431    1.33    3.53
     5.0  40330.  0.2480    1.46    3.62
     4.9  39520.  0.2530    1.61    3.70
     4.8  38710.  0.2583    1.75    3.76
     4.7  37910.  0.2638    1.90    3.81
     4.6  37100.  0.2695    2.06    3.84
     4.5  36290.  0.2755    2.21    3.87
     4.4  35490.  0.2818    2.39    3.88
     4.3  34680.  0.2883    2.59    3.86
     4.2  33880.  0.2952    2.77    3.77
     4.1  33070.  0.3024    2.91    3.67
     4.0  32260.  0.3100    3.01    3.51
     3.9  31460.  0.3179    3.04    3.40
     3.8  30650.  0.3263    3.04    3.31
     3.7  29840.  0.3351    3.04    3.27
     3.6   29040  0.3444    3.05    3.24
     3.5  28230.  0.3542    3.06    3.21
     3.4  27420.  0.3647    3.06    3.19
     3.3  26620.  0.3757    3.06    3.18
     3.2  25810.  0.3875    3.05    3.18
     3.1  25000.  0.4000    3.03    3.22
     3.0  24200.  0.4133    3.04    3.27
     2.9  23390.  0.4275    3.05    3.33
     2.8  22580.  0.4428    3.08    3.42
     2.7  21780.  0.4592    3.13    3.51
     2.6  20970.  0.4769    3.22    3.61
     2.5  20160.  0.4959    3.36    3.73
     2.4  19360.  0.5166    3.59    3.78
     2.3  18550.  0.5391    3.79    3.61
     2.2  17740.  0.5636    3.76    3.41
     2.1  16940.  0.5904    3.68    3.45
     2.0  16130.  0.6199    3.68    3.52
     1.9  15320.  0.6526    3.74    3.58
     1.8  14520.  0.6888    3.81    3.58
     1.7  13710.  0.7293    3.84    3.51
     1.6  12900.  0.7749    3.77    3.41
     1.5  12100.  0.8266    3.53    3.30
     1.4  11290.  0.8856    3.15    3.40
     1.3  10490.  0.9537    2.77    3.74
     1.2   9679.   1.033    2.44    4.22
     1.1   8872.   1.127    2.16    4.85
     1.0   8065.   1.240    1.94    5.58
     0.9   7259.   1.378    1.74    6.48
    0.86   6936.   1.442    1.70    6.90
    0.82   6614.   1.512    1.64    7.35
    0.78   6291.   1.590    1.60    7.83
    0.74   5968.   1.675    1.52    8.38
    0.70   5646.   1.771    1.48    8.99
    0.66   5323.   1.879    1.43    9.67
    0.62   5001.   2.000    1.38    10.4
    0.58   4678.   2.138    1.34    11.3
    0.54   4355.   2.296    1.35    12.4
    0.50   4033.   2.480    1.37    13.5
    0.46   3710.   2.695    1.46    14.9
    0.42   3388.   2.952    1.57    16.5
    0.38   3065.   3.263    1.70    18.4
    0.34   2742.   3.647    1.99    20.8
    0.30   2420.   4.133    2.44    23.8
    0.29   2339.   4.275    2.58    24.7
    0.28   2258.   4.428    2.74    25.6
    0.27   2178.   4.592    2.92    26.6
    0.26   2097.   4.769    3.14    27.6
    0.25   2016.   4.959    3.36    28.8
    0.24   1936.   5.166    3.61    30.0
    0.23   1855.   5.391    3.92    31.3
    0.22   1774.   5.636    4.26    32.7
    0.21   1694.   5.904    4.65    34.3
    0.20   1613.   6.109    5.10    36.0
    0.19   1532.   6.526    5.61    37.8
    0.18   1452.   6.888    6.21    39.9
    0.17   1371.   7.293    6.90    42.2
    0.16   1291.   7.749    7.74    44.7
    0.15   1210.   8.266    8.78    47.5
    0.14   1129.   8.856    9.96    50.7
    0.13   1049.   9.537    11.4    54.4
    0.12   967.9   10.33    13.4    58.4
    0.11   887.2   11.27    15.6    63.1
    0.10   806.5   12.40    18.5    68.5
