;UO 
;UO Na.ASC: Values of n and k for polycrystalline sodium from various
;UO references in HOCII (pg. 360).  References are 7, 12, 14, 15.
;UO 
;UO From HANDBOOK OF OPTICAL CONSTANTS IN SOLIDS II edited by Edward D.
;UO Palik. Copyright (c) 1991 by Academic Press, Inc. Reproduced by
;UO permission of the publisher.
;UO --------------------------------------------------------------
;UO    eV         cm-1      um           n              k         
;UO --------------------------------------------------------------
;N  5
;L  Energy[eV]  Wavelength[cm-1]  Wavelength[um]  n  k  
  10000. 80655000. 0.0001240 0.9999980 1.38E-08
   9549. 77017000. 0.0001298 0.9999979 1.66E-08
   9117. 73533000. 0.0001360 0.9999977 2.00E-08
   8706. 70218000. 0.0001424 0.9999974 2.41E-08
   8313. 67049000. 0.0001492 0.9999972 2.91E-08
   7937. 64016000. 0.0001562 0.9999969 3.50E-08
   7579. 61128000. 0.0001636 0.9999966 4.21E-08
   7237. 58370000. 0.0001713 0.9999962 5.07E-08
   6910. 55733000. 0.0001794 0.9999959 6.09E-08
   6598. 53216000. 0.0001879 0.9999955 7.33E-08
   6300. 50813000. 0.0001968 0.9999951 8.81E-08
   6015. 48514000. 0.0002061 0.9999946 1.06E-07
   5744. 46328000. 0.0002159 0.9999940 1.27E-07
   5484. 44231000. 0.0002261 0.9999934 1.53E-07
   5237. 42239000. 0.0002368 0.9999928 1.83E-07
   5000. 40328000. 0.0002480 0.9999921 2.20E-07
   4775. 38513000. 0.0002597 0.9999914 2.64E-07
   4559. 36771000. 0.0002720 0.9999905 3.16E-07
   4353. 35109000. 0.0002848 0.9999896 3.79E-07
   4157. 33528000. 0.0002983 0.9999885 4.54E-07
   3969. 32012000. 0.0003124 0.9999874 5.44E-07
   3790. 30568000. 0.0003272 0.9999862 6.52E-07
   3619. 29189000. 0.0003426 0.9999848 7.80E-07
   3455. 27866000. 0.0003588 0.9999833 9.32E-07
   3299. 26608000. 0.0003758 0.9999816 1.12E-06
   3150. 25406000. 0.0003936 0.9999799 1.33E-06
   3008. 24261000. 0.0004122 0.9999779 1.59E-06
   2872. 23164000. 0.0004317 0.9999757 1.90E-06
   2742. 22116000. 0.0004521 0.9999734 2.26E-06
   2619. 21124000. 0.0004735 0.9999708 2.70E-06
   2500. 20164000. 0.0004959 0.9999680 3.22E-06
   2387. 19252000. 0.0005193 0.9999649 3.83E-06
   2280. 18389000. 0.0005439 0.9999616 4.55E-06
   2177. 17559000. 0.0005696 0.9999579 5.41E-06
   2078. 16760000. 0.0005965 0.9999539 6.43E-06
   1985. 16010000. 0.0006248 0.9999496 7.62E-06
   1895. 15284000. 0.0006543 0.9999450 9.02E-06
   1809. 14590000. 0.0006852 0.9999400 1.07E-05
   1728. 13937000. 0.0007176 0.9999346 1.26E-05
   1650. 13308000. 0.0007516 0.9999289 1.49E-05
   1575. 12703000. 0.0007871 0.9999228 1.76E-05
   1504. 12131000. 0.0008244 0.9999164 2.08E-05
   1436. 11582000. 0.0008633 0.9999099 2.45E-05
   1371. 11058000. 0.0009041 0.9999032 2.88E-05
   1309. 10558000. 0.0009469 0.999897 3.40E-05
   1250. 10082000. 0.0009917 0.999891 4.01E-05
   1194. 9630200. 0.001039 0.999887 4.73E-05
   1140. 9194700. 0.001088 0.999888 5.58E-05
   1114. 8985000. 0.001113 0.999893 6.06E-05
   1088. 8775300. 0.001139 0.9999092 6.58E-05
   1064. 8581700. 0.001166 0.9999223 4.76E-06
   1039. 8380100. 0.001193 0.999891 5.20E-06
   1016. 8194500. 0.001221 0.999874 5.68E-06
   992.3 8003400. 0.001249 0.999861 6.21E-06
   947.5 7642100. 0.001309 0.999838 7.42E-06
   904.7 7296900. 0.001370 0.999816 8.84E-06
   863.9 6967800. 0.001435 0.999793 1.05E-05
   824.9 6653200. 0.001503 0.999769 1.25E-05
   787.7 6353200. 0.001574 0.999743 1.48E-05
   752.1 6066100. 0.001649 0.999715 1.76E-05
   718.1 5791800. 0.001727 0.999684 2.09E-05
   685.7 5530500. 0.001808 0.999651 2.47E-05
   654.7 5280500. 0.001894 0.999614 2.93E-05
   625.1 5041700. 0.001983 0.999574 3.47E-05
   596.9 4814300. 0.002077 0.999530 4.07E-05
   570.0 4597300. 0.002175 0.999482 4.80E-05
   544.0 4387600. 0.002278 0.999429 5.65E-05
   519.7 4191600. 0.002386 0.999371 6.66E-05
   496.2 4002100. 0.002499 0.999306 7.85E-05
   473.8 3821400. 0.002617 0.999236 9.25E-05
   452.4 3648800. 0.002741 0.999159 1.09E-04
   432.9 3419500. 0.002870 0.999074 1.29E-04
   412.5 3327000. 0.003006 0.99898 1.52E-04
   393.8 3176200. 0.003148 0.99888 1.80E-04
   376.1 3033400. 0.003297 0.99877 2.12E-04
   359.1 2896300. 0.003453 0.99865 2.50E-04
   342.9 2765700. 0.003616 0.99851 2.95E-04
   327.4 2640600. 0.003787 0.99837 3.46E-04
   312.6 2521300. 0.003966 0.99821 4.06E-04
   298.5 2407500. 0.004154 0.99804 4.77E-04
   285.0 2298700. 0.004350 0.99785 5.60E-04
   272.1 2194600. 0.004556 0.99765 6.58E-04
   259.9 2096200. 0.004771 0.99744 7.71E-04
   248.1 2001000. 0.004997 0.99720 8.98E-04
   236.9 1910700. 0.005233 0.99695 1.04E-03
   226.2 1824400. 0.005481 0.99667 1.22E-03
   216.0 1742100. 0.005740 0.99638 1.41E-03
   206.2 1663100. 0.006012 0.99607 1.64E-03
   196.9 1588100. 0.006296 0.99575 1.91E-03
   188.0 1516300. 0.006594 0.99540 2.20E-03
   179.6 1448600. 0.006905 0.99503 2.53E-03
   171.4 1382400. 0.007232 0.99463 2.91E-03
   163.7 1320300. 0.007574 0.99422 3.35E-03
   156.3 1260600. 0.007932 0.99380 3.85E-03
   149.3 1204200. 0.008307 0.99339 4.43E-03
   142.5 1149300. 0.008700 0.99298 5.03E-03
   136.1 1097700. 0.009111 0.99254 5.69E-03
   129.9 1047700. 0.009542 0.99209 6.45E-03
   124.1 1000900. 0.009994 0.99163 7.31E-03
   118.5 995760. 0.01047 0.99119 8.27E-03
   113.1 912210. 0.01096 0.99076 9.35E-03
   108.0 871070. 0.01148 0.99040 1.06E-02
   103.1 831550. 0.01202 0.99012 1.20E-02
   98.47 794210. 0.01259 0.99009 1.34E-02
   94.03 758400. 0.01319 0.99008 1.48E-02
   89.78 724120. 0.01381 0.99011 1.64E-02
   85.73 691450. 0.01446 0.99037 1.81E-02
   81.85 660160. 0.01515 0.99082 1.96E-02
   78.16 630400. 0.01586 0.99122 2.12E-02
   74.63 601930. 0.01661 0.99173 2.29E-02
   71.26 574750. 0.01740 0.99247 2.48E-02
   68.04 548780. 0.01822 0.99376 2.65E-02
   64.97 524010. 0.01908 0.99485 2.78E-02
   62.04 500380. 0.01999 0.99591 2.92E-02
   59.24 477800. 0.02093 0.99705 3.05E-02
   56.56 456180. 0.02192 0.99825 3.21E-02
   54.01 435620. 0.02296 0.999606 3.36E-02
   51.57 415940. 0.02404   1.001 3.52E-02
    34.0 274230. 0.03647 -0.0001 1.0E-02
    33.0 266170. 0.03757 -0.0001 1.0E-02
    32.5 262130. 0.03815 -0.0001 1.1E-02
    32.3 260520. 0.03839 -0.0001 1.2E-02
    32.0 258100. 0.03875 -0.0001 1.0E-02
    31.6 254870. 0.03924 -0.0001 1.0E-02
    31.5 254060. 0.03936 -0.0001 1.0E-02
    31.0 250030. 0.03999 -0.0001 1.2E-02
    30.9 249220. 0.04012 -0.0001 1.4E-02
    30.8 248420. 0.04025 -0.0001 1.2E-02
    30.6 246800. 0.04052 -0.0001 1.0E-02
    30.0 241970. 0.04133 -0.0001  4.E-03
    29.5 237930. 0.04203 -0.0001  5.E-03
    29.0 233900. 0.04275 -0.0001  5.E-03
    28.0 225830. 0.04430 -0.0001  5.E-03
    27.0 217770. 0.04592 -0.0001  6.E-03
    26.5 213740. 0.04679 -0.0001  7.E-03
    26.0 209700. 0.04769 -0.0001  7.E-03
    25.0 201640. 0.04959 -0.0001  7.E-03
    24.0 193570. 0.05166 -0.0001  7.E-03
    23.0 185510. 0.05391 -0.0001  7.E-03
    22.0 177440. 0.05636 -0.0001  7.E-03
    21.0 169380. 0.05904 -0.0001  7.E-03
    20.0 161310. 0.06199 -0.0001  7.E-03
    19.0 153240. 0.06525 -0.0001  7.E-03
    18.0 145180. 0.06888 -0.0001  7.E-03
    17.0 137110. 0.07293 -0.0001  7.E-03
    16.5 133080. 0.07514 -0.0001  7.E-03
    16.0 129050. 0.07749 -0.0001  6.E-03
    15.0 120980. 0.08266 -0.0001  5.E-03
    14.0 112920. 0.08856 -0.0001  5.E-03
    13.0 104850. 0.09537 -0.0001  5.E-03
    12.0  96786.  0.1033 -0.0001  5.E-03
    11.0  88720.  0.1127 -0.0001  6.E-03
    10.0  80655.  0.1240 -0.0001  7.E-03
    9.00  72589.  0.1378 -0.0001  8.E-03
   29.52 238090.  0.0420    1.02 -0.0001
   28.37 228820.  0.0437    1.01 -0.0001
   27.68 223250.  0.0448    1.01 -0.0001
   26.95 217370.  0.0460    1.00 -0.0001
   25.51 205750.  0.0486   0.993 -0.0001
   21.12 170340.  0.0587   0.979 -0.0001
   18.10 146000.  0.0685   0.964 -0.0001
   16.21 130740.  0.0765   0.948 -0.0001
   15.46 124690.  0.0802   0.942 -0.0001
   15.05 121390.  0.0824   0.936 -0.0001
   14.83 119610.  0.0836   0.934 -0.0001
   14.07 113480.  0.0881   0.922 -0.0001
   13.73 110740.  0.0903   0.917 -0.0001
   13.42 108240.  0.0924   0.914 -0.0001
   13.05 105250.  0.0950   0.913 -0.0001
   12.73 102670.  0.0974   0.907 -0.0001
   11.83  95420.  0.1048   0.887 -0.0001
   11.08  89366.  0.1119   0.870 -0.0001
   10.20  82237.  0.1216   0.843 -0.0001
   9.709  78309.  0.1277   0.819 -0.0001
   9.143  73746.  0.1357   0.800 -0.0001
   8.634  69638.  0.1437   0.762 -0.0001
   8.015  64641.  0.1548   0.710 -0.0001
   7.847  63291.  0.1579   0.700 -0.0001
   7.583  61162.  0.1636   0.674 -0.0001
   7.328  59102.  0.1691   0.641 -0.0001
   7.130  57504.  0.1739   0.616 -0.0001
   6.888  55555.  0.1799   0.574 -0.0001
   6.702  54054.  0.1851   0.533 -0.0001
   6.526  52632.  0.1899   0.485 -0.0001
   6.358  51282.  0.1949   0.454 -0.0001
   6.199  50000.  0.2000   0.390 -0.0001
    3.97  32020.  0.3123 0.49E-01    1.01
    3.71  29923.  0.3342 0.55E-01    1.13
    3.40  27423.  0.3647 0.61E-01    1.33
    3.20  25810.  0.3875 0.65E-01    1.47
    3.06  24680.  0.4052 0.69E-01    1.54
    2.95  23793.  0.4203 0.68E-01    1.63
    2.82  22745.  0.4397 0.68E-01    1.76
    2.64  21293.  0.4696 0.66E-01    1.88
    2.45  19760.  0.5061 0.63E-01    2.07
    2.27  18309.  0.5462 0.59E-01    2.23
    2.07  16696.  0.5990 0.53E-01    2.48
    1.87  15082.  0.6630 0.49E-01    2.76
    1.65  13308.  0.7514 0.50E-01    3.22
    1.44  11614.  0.8610 0.53E-01    3.72
    1.23   9921.   1.008 0.64E-01    4.35
    1.05   8469.   1.181 0.78E-01    5.11
   0.920   7420.   1.348 0.99E-01    5.82
   0.810   6533.   1.531   0.123    6.67
   0.730   5888.   1.698   0.147    7.42
   0.670   5404.   1.851   0.175    8.09
   0.630   5081.   1.968   0.207    8.80
   0.580   4678.   2.138   0.241    9.45
   0.550   4436.   2.254   0.262    9.97
