;UO 
;UO Nb.ASC: Values of n and k for polycrystalline niobium from
;UO various references in HOCII (pg. 400). References are 8, 19, 22.
;UO 
;UO From HANDBOOK OF OPTICAL CONSTANTS IN SOLIDS II edited by Edward D.
;UO Palik. Copyright (c) 1991 by Academic Press, Inc. Reproduced by
;UO permission of the publisher.
;UO --------------------------------------------------------------- 
;UO     eV         cm-1        um           n              k 
;UO ---------------------------------------------------------------	
;N  5
;L  Energy[eV]  Wavelength[cm-1]  Wavelength[um]  n  k  
  10000. 80655000. 0.0001240 0.9999845 6.55E-07
   9549. 77017000. 0.0001298 0.9999829 7.80E-07
   9117. 73533000. 0.0001360 0.9999812 9.28E-07
   8706. 70218000. 0.0001424 0.9999794 1.10E-06
   8313. 67048000. 0.0001492 0.9999774 1.31E-06
   7937. 64016000. 0.0001562 0.9999751 1.56E-06
   7579. 61128000. 0.0001636 0.9999726 1.86E-06
   7237. 58370000. 0.0001713 0.9999700 2.21E-06
   6910. 55732000. 0.0001794 0.9999670 2.62E-06
   6598. 53216000. 0.0001879 0.9999638 3.11E-06
   6300. 50813000. 0.0001968 0.9999602 3.70E-06
   6015. 48514000. 0.0002061 0.9999564 4.39E-06
   5744. 46328000. 0.0002159 0.9999521 5.21E-06
   5484. 44231000. 0.0002261 0.9999475 6.18E-06
   5237. 42239000. 0.0002368 0.9999425 7.34E-06
   5000. 40327000. 0.0002480 0.9999370 8.70E-06
   4775. 38513000. 0.0002597 0.9999310 1.03E-05
   4559. 36771000. 0.0002720 0.9999245 1.22E-05
   4353. 35109000. 0.0002848 0.9999175 1.44E-05
   4157. 33528000. 0.0002983 0.9999099 1.71E-05
   3969. 32012000. 0.0003124 0.9999018 2.02E-05
   3790. 30568000. 0.0003272 0.999893 2.38E-05
   3619. 29189000. 0.0003426 0.999884 2.81E-05
   3455. 27866000. 0.0003588 0.999874 3.31E-05
   3299. 26608000. 0.0003758 0.999864 3.90E-05
   3150. 25406000. 0.0003936 0.999854 4.59E-05
   3008. 24261000. 0.0004122 0.999845 5.39E-05
   2872. 23164000. 0.0004317 0.999836 6.32E-05
   2807. 22640000. 0.0004418 0.999833 6.84E-05
   2742. 22116000. 0.0004521 0.999832 7.40E-05
   2680. 21615000. 0.0004627 0.999832 7.02E-05
   2619. 21123000. 0.0004735 0.999826 7.59E-05
   2559. 20640000. 0.0004846 0.999825 8.21E-05
   2500. 20164000. 0.0004959 0.999831 8.88E-05
   2443. 19704000. 0.0005075 0.999835 6.97E-05
   2387. 19252000. 0.0005193 0.999839 7.57E-05
   2333. 18817000. 0.0005315 0.999822 2.21E-05
   2280. 18389000. 0.0005439 0.999795 2.38E-05
   2228. 17970000. 0.0005566 0.999775 2.58E-05
   2177. 17559000. 0.0005696 0.999757 2.79E-05
   2078. 16760000. 0.0005965 0.999723 3.26E-05
   1985. 16010000. 0.0006248 0.999688 3.83E-05
   1895. 15284000. 0.0006543 0.999651 4.49E-05
   1809. 14590000. 0.0006852 0.999613 5.27E-05
   1728. 13937000. 0.0007176 0.999570 6.19E-05
   1650. 13308000. 0.0007516 0.999525 7.29E-05
   1575. 12703000. 0.0007871 0.999475 8.58E-05
   1504. 12130000. 0.0008244 0.999422 1.01E-04
   1436. 11582000. 0.0008633 0.999364 1.18E-04
   1371. 11058000. 0.0009041 0.999301 1.38E-04
   1309. 10558000. 0.0009469 0.999232 1.61E-04
   1250. 10082000. 0.0009917 0.999157 1.88E-04
   1194. 9630200. 0.001039 0.999076 2.20E-04
   1140. 9194600. 0.001088 0.99899 2.56E-04
   1088. 8775200. 0.001139 0.99889 2.99E-04
   1039. 8380000. 0.001193 0.99879 3.47E-04
   992.3 8003400. 0.001249 0.99868 4.05E-04
   947.5 7642000. 0.001309 0.99856 4.70E-04
   904.7 7296800. 0.001370 0.99843 5.49E-04
   863.9 6967800. 0.001435 0.99830 6.47E-04
   824.9 6653200. 0.001503 0.99817 7.50E-04
   787.7 6353200. 0.001574 0.99803 8.58E-04
   752.1 6066000. 0.001649 0.99787 9.82E-04
   718.1 5791800. 0.001727 0.99772 1.12E-03
   685.7 5530500. 0.001808 0.99755 1.27E-03
   654.7 5280500. 0.001894 0.99737 1.44E-03
   625.1 5041700. 0.001983 0.99719 1.64E-03
   596.9 4814300. 0.002077 0.99700 1.86E-03
   570.0 4597300. 0.002175 0.99682 2.11E-03
   544.2 4389200. 0.002278 0.99666 2.40E-03
   519.7 4191600. 0.002386 0.99651 2.67E-03
   496.2 4002100. 0.002499 0.99635 2.96E-03
   484.9 3911000. 0.002557 0.99627 3.12E-03
   473.8 3821400. 0.002617 0.99620 3.29E-03
   463.0 3734300. 0.002678 0.99613 3.47E-03
   452.4 3648800. 0.002741 0.99608 3.65E-03
   442.1 3565700. 0.002804 0.99602 3.82E-03
   432.0 3484300. 0.002870 0.99596 4.00E-03
   412.5 3327000. 0.003006 0.99587 4.38E-03
   403.0 3250400. 0.003077 0.99585 4.59E-03
   393.8 3176200. 0.003148 0.99585 4.77E-03
   384.8 3103600. 0.003222 0.99584 4.93E-03
   376.1 3033400. 0.003297 0.99582 5.10E-03
   367.5 2964100. 0.003374 0.99581 5.28E-03
   359.1 2896300. 0.003453 0.99580 5.46E-03
   350.9 2830200. 0.003533 0.99580 5.65E-03
   342.9 2765700. 0.003616 0.99584 5.83E-03
   335.0 2701900. 0.003701 0.99590 5.97E-03
   319.9 2580100. 0.003876 0.99597 6.22E-03
   305.5 2464000. 0.004058 0.99612 6.48E-03
   291.7 2352700. 0.004250 0.99628 6.48E-03
   278.5 2246200. 0.004452 0.99637 6.48E-03
   265.9 2144600. 0.004663 0.99663 6.28E-03
   253.9 2047800. 0.004883 0.99658 5.77E-03
   242.5 1955900. 0.005113 0.99645 5.06E-03
   231.5 1867200. 0.005356 0.99586 4.12E-03
   221.1 1783300. 0.005608 0.99472 3.23E-03
   216.0 1742100. 0.005740 0.99400 2.87E-03
   211.1 1702600. 0.005873 0.99322 2.62E-03
   206.2 1663100. 0.006013 0.99238 2.41E-03
   201.5 1625200. 0.006153 0.99149 2.30E-03
   196.9 1588100. 0.006297 0.99060 2.26E-03
   192.4 1551800. 0.006444 0.98970 2.29E-03
   188.0 1516300. 0.006595  0.9888 2.34E-03
   179.6 1448600. 0.006903  0.9871 2.55E-03
   171.4 1382400. 0.007234  0.9853 2.70E-03
   163.7 1320300. 0.007574  0.9834 2.86E-03
   156.3 1260600. 0.007932  0.9814 3.01E-03
   149.3 1204200. 0.008304  0.9791 3.16E-03
   142.5 1149300. 0.008701  0.9767 3.27E-03
   136.1 1097700. 0.009110  0.9740 3.40E-03
   129.9 1047700. 0.009545  0.9709 3.51E-03
   124.1 1000900. 0.009991  0.9676 3.60E-03
   118.5 955760. 0.01046  0.9638 3.69E-03
   113.1 912210. 0.01096  0.9595 3.75E-03
   108.0 871070. 0.01148  0.9546 3.78E-03
   103.1 831550. 0.01203  0.9490 3.87E-03
   98.47 794210. 0.01259  0.9424 4.03E-03
   94.03 758400. 0.01319  0.9348 4.69E-03
   89.78 724120. 0.01381  0.9263 5.74E-03
   85.73 691450. 0.01447  0.9164 7.34E-03
   81.85 660160. 0.01515  0.9054 9.92E-03
   78.16 630400. 0.01586  0.8929 1.35E-02
   74.63 601930. 0.01661  0.8791 1.87E-02
   71.26 574750. 0.01740  0.8643 2.57E-02
   68.04 548780. 0.01822  0.8478 3.45E-02
   64.97 524010. 0.01908  0.8299 4.62E-02
   63.49 512080. 0.01953  0.8206 5.36E-02
   62.04 500380. 0.01998  0.8113 6.20E-02
   60.62 488930. 0.02045  0.8021 7.10E-02
   59.24 477800. 0.02093  0.7926 8.12E-02
   57.88 466830. 0.02142  0.7828 9.27E-02
   56.56 456180. 0.02192  0.7732   0.106
   54.01 435620. 0.02296  0.7559   0.138
   51.57 415940. 0.02404  0.7451   0.178
    200. 1613100. 0.06199 -0.0001 2.00E-02
    150. 1209800. 0.08266 -0.0001 2.60E-02
    100. 806550. 0.01240 -0.0001 3.90E-02
    95.0 766220. 0.01305 -0.0001 4.20E-02
    90.0 725890. 0.01378 -0.0001 4.40E-02
    85.0 685570. 0.01459 -0.0001 4.70E-02
    80.0 645240. 0.01550 -0.0001 5.20E-02
    75.0 604910. 0.01653 -0.0001 5.70E-02
    70.0 564580. 0.01771 -0.0001 6.50E-02
    65.0 524260. 0.01907 -0.0001 7.70E-02
    60.0 483930. 0.02066 -0.0001 9.40E-02
    55.0 443600. 0.02254 -0.0001   0.126
    50.0 403270. 0.02480 -0.0001   0.180
    45.0 362950. 0.02755 -0.0001   0.243
    44.0 354880. 0.02818 -0.0001   0.258
    43.0 346820. 0.02883 -0.0001   0.275
    42.0 338750. 0.02952 -0.0001   0.277
    41.0 330680. 0.03024 -0.0001   0.279
    40.5 326650. 0.03061    0.92    0.47
    40.0 322620. 0.03100 -0.0001   0.284
    39.5 318590. 0.03139    0.95    0.50
    39.0 314550. 0.03179 -0.0001   0.291
    38.5 310520. 0.03220    1.00    0.53
    38.0 306490. 0.03263 -0.0001   0.293
    37.5 302460. 0.03306    1.07    0.53
    37.0 298420. 0.03351 -0.0001   0.291
    36.8 296810. 0.03369    1.11    0.52
    36.4 293580. 0.03406    1.13    0.51
    36.0 290360. 0.03444    1.15    0.50
    36.0 290360. 0.03444 -0.0001   0.288
    35.6 287130. 0.03483    1.16    0.49
    35.2 283900. 0.03522    1.17    0.47
    35.0 282290. 0.03542 -0.0001   0.268
    34.8 280680. 0.03563    1.19    0.46
    34.4 277450. 0.03604    1.20    0.44
    34.0 274230. 0.03647    1.20    0.42
    33.8 272610. 0.03668    1.21    0.41
    33.6 271000. 0.03690    1.21    0.41
    33.4 269390. 0.03712    1.21    0.40
    33.2 267770. 0.03734    1.21    0.39
    33.0 266160. 0.03757    1.21    0.38
    32.8 264550. 0.03780    1.21    0.37
    32.6 262930. 0.03803    1.21    0.36
    32.4 261320. 0.03827    1.21    0.35
    32.2 259710. 0.03850    1.21    0.35
    32.0 258100. 0.03875    1.20    0.34
    31.8 256480. 0.03899    1.20    0.33
    31.6 254870. 0.03924    1.20    0.32
    31.4 253260. 0.03949    1.19    0.32
    31.2 251640. 0.03974    1.18    0.31
    31.0 250030. 0.03999    1.18    0.31
    30.8 248420. 0.04025    1.17    0.31
    30.6 246800. 0.04052    1.18    0.31
    30.4 245190. 0.04078    1.18    0.30
    30.2 243580. 0.04105    1.18    0.29
    30.0 241960. 0.04133    1.18    0.28
    30.0 241960. 0.04133 -0.0001   0.207
    29.8 240350. 0.04161    1.17    0.27
    29.6 238740. 0.04189    1.16    0.26
    29.4 237130. 0.04217    1.15    0.25
    29.2 235510. 0.04246    1.14    0.25
    29.0 233900. 0.04275    1.13    0.25
    28.8 232290. 0.04305    1.12    0.25
    28.6 230670. 0.04335    1.11    0.24
    28.4 229060. 0.04366    1.10    0.24
    28.2 227450. 0.04397    1.09    0.24
    28.0 225830. 0.04428    1.08    0.24
    27.8 224220. 0.04460    1.07    0.25
    27.6 222610. 0.04492    1.06    0.25
    27.4 220990. 0.04525    1.05    0.25
    27.2 219380. 0.04558    1.05    0.25
    27.0 217770. 0.04592    1.04    0.25
    26.8 216150. 0.04626    1.03    0.25
    26.6 214540. 0.04661    1.03    0.25
    26.4 212930. 0.04696    1.02    0.26
    26.2 211320. 0.04732    1.01    0.26
    26.0 209700. 0.04769    1.00    0.26
    25.8 208090. 0.04806    0.99    0.26
    25.6 206480. 0.04843    0.99    0.26
    25.4 204860. 0.04881    0.98    0.27
    25.2 203250. 0.04920    0.97    0.27
    25.0 201640. 0.04959    0.96    0.27
    24.8 200020. 0.04999    0.95    0.28
    24.6 198410. 0.05040    0.94    0.28
    24.4 196800. 0.05081    0.93    0.28
    24.2 195180. 0.05123    0.92    0.29
    24.0 193570. 0.05166    0.91    0.29
    23.8 191960. 0.05209    0.90    0.30
    23.6 190350. 0.05254    0.88    0.30
    23.4 188730. 0.05298    0.87    0.31
    23.2 187120. 0.05344    0.86    0.32
    23.0 185510. 0.05391    0.85    0.33
    22.8 183890. 0.05438    0.83    0.34
    22.6 182280. 0.05486    0.82    0.35
    22.4 180670. 0.05535    0.81    0.36
    22.2 179050. 0.05585    0.79    0.38
    22.0 177440. 0.05636    0.78    0.40
    21.8 175830. 0.05687    0.77    0.41
    21.6 174210. 0.05740    0.75    0.43
    21.4 172600. 0.05794    0.74    0.45
    21.2 170990. 0.05848    0.73    0.47
    21.0 169380. 0.05904    0.72    0.50
    20.8 167760. 0.05961    0.72    0.52
    20.6 166150. 0.06019    0.71    0.55
    20.4 164540. 0.06078    0.72    0.57
    20.2 162920. 0.06138    0.72    0.60
    20.0 161310. 0.06199    0.72    0.62
    19.8 159700. 0.06262    0.72    0.64
    19.6 158080. 0.06326    0.72    0.66
    19.4 156470. 0.06391    0.73    0.68
    19.2 154860. 0.06458    0.73    0.69
    19.0 153240. 0.06525    0.72    0.72
    18.8 151630. 0.06595    0.73    0.74
    18.6 150020. 0.06666    0.73    0.77
    18.4 148400. 0.06738    0.73    0.79
    18.2 146790. 0.06812    0.73    0.82
    18.0 145180. 0.06888    0.74    0.85
    17.8 143570. 0.06965    0.75    0.87
    17.6 141950. 0.07045    0.76    0.90
    17.4 140340. 0.07126    0.77    0.93
    17.2 138730. 0.07208    0.79    0.96
    17.0 137110. 0.07293    0.80    0.99
    16.8 135500. 0.07380    0.82    1.02
    16.6 133890. 0.07469    0.85    1.04
    16.4 132270. 0.07560    0.87    1.06
    16.2 130660. 0.07653    0.89    1.09
    16.0 129050. 0.07749    0.92    1.11
    15.8 127430. 0.07847    0.95    1.13
    15.6 125820. 0.07948    0.99    1.14
    15.4 124210. 0.08051    1.02    1.15
    15.2 122600. 0.08157    1.05    1.16
    15.0 120980. 0.08266    1.08    1.16
    14.8 119370. 0.08377    1.11    1.16
    14.6 117760. 0.08492    1.14    1.15
    14.4 116140. 0.08610    1.16    1.15
    14.2 114530. 0.08731    1.18    1.14
    14.0 112920. 0.08856    1.20    1.13
    13.8 111300. 0.08984    1.22    1.13
    13.6 109690. 0.09116    1.23    1.12
    13.4 108080. 0.09253    1.24    1.10
    13.2 106460. 0.09393    1.24    1.09
    13.0 104850. 0.09537    1.24    1.09
    12.8 103240. 0.09686    1.24    1.09
    12.6 101630. 0.09840    1.24    1.09
    12.4 100010. 0.09999    1.24    1.10
    12.2  98399.  0.1016    1.25    1.11
    12.0  96786.  0.1033    1.25    1.12
    11.8  95173.  0.1051    1.27    1.13
    11.6  93560.  0.1069    1.28    1.13
    11.4  91946.  0.1088    1.30    1.13
    11.3  91140.  0.1097    1.31    1.12
    11.2  90333.  0.1107    1.31    1.12
    11.1  89527.  0.1117    1.32    1.11
    11.0  88720.  0.1127    1.32    1.10
    10.9  87914.  0.1137    1.32    1.09
    10.8  87107.  0.1148    1.32    1.08
    10.7  86301.  0.1159    1.31    1.07
    10.6  85494.  0.1170    1.30    1.06
    10.5  84688.  0.1181    1.29    1.05
    10.4  83881.  0.1192    1.27    1.04
    10.3  83074.  0.1204    1.25    1.04
    10.2  82268.  0.1216    1.23    1.04
    10.1  81461.  0.1228    1.20    1.04
    10.0  80655.  0.1240    1.18    1.05
    9.90  79848.  0.1252    1.15    1.06
    9.80  79042.  0.1265    1.13    1.09
    9.70  78235.  0.1278    1.11    1.11
    9.60  77429.  0.1292    1.10    1.13
    9.50  76622.  0.1305    1.08    1.15
    9.40  75816.  0.1319    1.07    1.18
    9.30  75009.  0.1333    1.06    1.19
    9.20  74202.  0.1348    1.04    1.22
    9.10  73396.  0.1362    1.02    1.25
    9.00  72589.  0.1378    1.01    1.29
    8.90  71783.  0.1393    1.00    1.32
    8.80  70976.  0.1409    1.00    1.36
    8.70  70170.  0.1425   0.990    1.39
    8.60  69363.  0.1442   0.990    1.43
    8.40  67750.  0.1476   0.990    1.51
    8.20  66137.  0.1512    1.00    1.60
    8.00  64524.  0.1550    1.02    1.69
    7.80  62911.  0.1590    1.07    1.78
    7.60  61298.  0.1631    1.14    1.85
    7.40  59684.  0.1675    1.20    1.88
    7.20  58071.  0.1722    1.22    1.91
    7.00  56458.  0.1771    1.23    1.96
    6.80  54845.  0.1823    1.24    2.04
    6.60  53232.  0.1879    1.26    2.14
    6.40  51619.  0.1937    1.31    2.25
    6.20  50006.  0.2000    1.38    2.38
    6.00  48393.  0.2066    1.49    2.49
    5.80  46780.  0.2138    1.63    2.60
    5.60  45167.  0.2214    1.81    2.67
    5.40  43554.  0.2296    2.00    2.68
    5.20  41940.  0.2384    2.16    2.62
    5.00  40327.  0.2480    2.26    2.57
    4.80  38714.  0.2583    2.32    2.52
    4.60  37101.  0.2695    2.39    2.56
    4.40  35488.  0.2818    2.53    2.56
    4.20  33875.  0.2952    2.64    2.42
    4.00  32262.  0.3100    2.64    2.33
    3.90  31455.  0.3179    2.62    2.29
    3.80  30649.  0.3263    2.59    2.28
    3.70  29842.  0.3351    2.56    2.27
    3.60  29036.  0.3444    2.52    2.29
    3.50  28229.  0.3542    2.48    2.33
    3.40  27423.  0.3647    2.46    2.38
    3.30  26616.  0.3757    2.44    2.45
    3.20  25810.  0.3875    2.45    2.53
    3.10  25004.  0.3999    2.48    2.60
    3.00  24197.  0.4133    2.51    2.68
    2.85  22987.  0.4350    2.58    2.80
    2.75  22181.  0.4509    2.66    2.86
    2.65  21374.  0.4679    2.74    2.90
    2.55  20568.  0.4862    2.83    2.92
    2.45  19761.  0.5061    2.89    2.90
    2.35  18954.  0.5276    2.92    2.88
    2.25  18148.  0.5510    2.93    2.87
    2.15  17341.  0.5767    2.92    2.87
    2.05  16535.  0.6048    2.89    2.87
    1.95  15728.  0.6358    2.82    2.86
    1.85  14922.  0.6702    2.69    2.89
    1.75  14115.  0.7085    2.54    2.99
    1.65  13308.  0.7514    2.36    3.13
    1.55  12502.  0.7999    2.15    3.37
    1.45  11695.  0.8551    1.95    3.68
    1.35  10889.  0.9184    1.76    4.13
    1.25  10082.  0.9919    1.65    4.63
    1.15   9276.   1.078    1.55    5.18
    1.05   8469.   1.181    1.44    5.86
    0.95   7662.   1.305    1.35    6.70
    0.85   6856.   1.459    1.35    7.74
    0.75   6049.   1.653    1.41    9.00
    0.65   5243.   1.907    1.57    10.6
    0.55   4436.   2.254    1.83    12.7
    0.45   3630.   2.755    2.28    15.6
    0.35   2823.   3.542    3.11    20.0
    0.28   2258.   4.428    4.26    25.0
    0.24   1936.   5.166    5.47    28.9
    0.20   1613.   6.199    7.25    34.1
    0.16   1290.   7.749    10.2    41.7
    0.12    968.   10.33    16.0    53.2
