;UO 
;UO NH2PO4.ASC: Values of n for tetragonal ammonium dihydrogen phophate
;UO (NH2PO4) at 24.8 C and 33.0 C from various references in
;UO HOCII (pg. 1014).  References are 1, 4. 
;UO 
;UO From HANDBOOK OF OPTICAL CONSTANTS IN SOLIDS II edited by Edward D.
;UO Palik. Copyright (c) 1991 by Academic Press, Inc. Reproduced by
;UO permission of the publisher. Temperatures   24.8 C    33.0 C 
;UO ---------------------------------------------------------------
;UO   eV          cm-1    um        n(o)      n(e)     n(o)      n(e)
;UO ---------------------------------------------------------------	
;N  7
;L  Energy[eV]  Wavelength[cm-1]  Wavelength[um]  n(o)  n(e)  n(o)  n(e)  
   3.100   25000   0.400  1.5405  1.4923  1.5396  1.4920
   2.952   23810   0.420  1.5379  1.4901  1.5368  1.4897
   2.818   22727   0.440  1.5357  1.4882  1.5344  1.4877
   2.696   21739   0.460  1.5337  1.4865  1.5324  1.4860
   2.583   20833   0.480  1.5319  1.4851  1.5306  1.4845
   2.480   20000   0.500  1.5303  1.4837  1.5290  1.4832
   2.385   19231   0.520  1.5288  1.4825  1.5276  1.4820
   2.296   18519   0.540  1.5274  1.4814  1.5263  1.4810
   2.214   17857   0.560  1.5261  1.4804  1.5251  1.4800
   2.138   17241   0.580  1.5249  1.4795  1.5240  1.4791
   2.067   16667   0.600  1.5238  1.4786  1.5229  1.4783
   2.000   16129   0.620  1.5227  1.4778  1.5219  1.4776
   1.938   15625   0.640  1.5217  1.4770  1.5209  1.4769
   1.879   15152   0.660  1.5207  1.4763  1.5200  1.4763
   1.824   14706   0.680  1.5197  1.4756  1.5191  1.4757
   1.771   14286   0.700  1.5188  1.4749  1.5183  1.4751
   1.722   13889   0.720  1.5179  1.4743  1.5175  1.4746
   1.676   13514   0.740  1.5170  1.4737  1.5167  1.4741
   1.632   13158   0.760  1.5162  1.4732  1.5159  1.4736
   1.590   12821   0.780  1.5154  1.4726  1.5152  1.4731
   1.550   12500   0.800  1.5146  1.4721  1.5145  1.4727
   1.512   12195   0.820  1.5138  1.4716  1.5139  1.4722
   1.476   11905   0.840  1.5131  1.4712  1.5132  1.4718
   1.442   11628   0.860  1.5123  1.4707  1.5126  1.4714
   1.409   11364   0.880  1.5116  1.4703  1.5121  1.4710
   1.378   11111   0.900  1.5109  1.4699  1.5115  1.4707
   1.348   10870   0.920  1.5103  1.4695  1.5110  1.4703
   1.319   10638   0.940  1.5096  1.4692  1.5106  1.4700
   1.292   10417   0.960  1.5090  1.4688  1.5101  1.4696
   1.265   10204   0.980  1.5084  1.4685  1.5100  1.4693
   1.240   10000   1.000  1.5078  1.4683  1.5094  1.4689
   1.216    9804   1.020  1.5072  1.4680  1.5091  1.4686
   1.192    9615   1.040  1.5067  1.4678  1.5089  1.4683
   1.170    9434   1.060  1.5061  1.4676  1.5087  1.4680
