;UO 
;UO Ni.ASC: Values of n and k for polycrystalline nickel from 
;UO various references in HOCI (pg. 317).  References are 13, 
;UO 17, 39, 40, 41, 42, 43.
;UO 
;UO Copyright (c) 1995 the Optical Society of America.  Contains data
;UO from HANDBOOK OF OPTICAL CONSTANTS IN SOLIDS edited by Edward D.
;UO Palik. Copyright (c) 1985 by Academic Press, Inc. Reproduced by
;UO permission of the publisher.
;UO -----------------------------------------------------------
;UO      eV      cm-1        um          n                 k
;UO -----------------------------------------------------------
;N  5
;L  Energy[eV]  Wavelength[cm-1]  Wavelength[um]  n  k  
   9919. 80000000. 0.000125 0.9999827 1.92E-6
   9184. 74070000. 0.000135 0.9999808 2.54E-6
   8551. 69970000. 0.000145 0.9999804 3.29E-6
   8266. 66670000. 0.000150 0.9999816 4.98E-7
   7085. 57140000. 0.000175 0.9999687 8.74E-7
   6199. 50000000. 0.000200 0.9999579 1.43E-6
   4959. 40000000. 0.000250 0.9999325 3.23E-6
   4133. 33330000. 0.000300 0.9999012 6.35E-6
   3542. 28570000. 0.000350 0.999864 1.12E-5
   3100. 25000000. 0.000400 0.999820 1.84E-5
   2480. 20000000. 0.000500 0.999715 4.19E-5
   2066. 16660000. 0.000600 0.999585 8.23E-5
   2000. 16130000. 0.0006199 0.999559 8.81E-5
   1952. 15740000. 0.0006351 0.999538 9.61E-5
   1905. 15360000. 0.0006508 0.999516 1.05E-4
   1860. 15000000. 0.0006665 0.999493 1.14E-4
   1815. 14640000. 0.0006831 0.999468 1.25E-4
   1772. 14290000. 0.0006997 0.999444 1.36E-4
   1771. 14280000. 0.000700 0.999436 1.46E-4
   1730. 13950000. 0.0007166 0.999418 1.48E-4
   1688. 13610000. 0.0007345 0.999391 1.62E-4
   1648. 13290000. 0.0007523 0.999363 1.76E-4
   1609. 12980000. 0.0007705 0.999335 1.91E-4
   1570. 12660000. 0.0007897 0.999304 2.09E-4
   1550. 12500000. 0.000800 0.999415 1.78E-4
   1533. 12360000. 0.0008087 0.999274 2.27E-4
   1496. 12070000. 0.0008287 0.999242 2.48E-4
   1487. 11990000. 0.0008340 0.999409 1.90E-4
   1460. 11780000. 0.0008492 0.999210 2.70E-4
   1426. 11500000. 0.0008694 0.999178 2.92E-4
   1392. 11230000. 0.0008906 0.999145 3.18E-4
   1358. 10950000. 0.0009129 0.999109 3.46E-4
   1326. 10690000. 0.0009350 0.999075 3.76E-4
   1294. 10440000. 0.0009581 0.999040 4.09E-4
   1263. 10190000. 0.0009816 0.999005 4.45E-4
   1254. 10110000. 0.0009890 0.999200 3.20E-4
   1233. 9945000. 0.00l005 0.99897 4.83E-4
   1204. 9711000. 0.001030 0.99894 5.24E-4
   1188. 9582000. 0.001044 0.999130 4.40E-4
   1175. 9477000. 0.001055 0.99891 5.69E-4
   1147. 9251000. 0.001081 0.99888 6.18E-4
   1119. 9025000. 0.001108 0.99885 6.72E-4
   1093. 8816000. 0.001134 0.99883 7.28E-4
   1067. 8606000. 0.001162 0.99881 7.91E-4
   1041. 8396000. 0.001191 0.99881 8.60E-4
   1016. 8194000. 0.001220 0.99883 9.33E-4
   1012. 8162000. 0.001225 0.999115 5.30E-4
    992. 8001000. 0.001250 0.99886 9.09E-4
    968. 7807000. 0.001281 0.99885 9.69E-4
    945. 7622000. 0.001312 0.99886 1.05E-3
   929.4 7497000. 0.001334 0.99898 7.20E-4
    923. 7444000. 0.001343 0.99892 1.14E-3
    901. 7267000. 0.001376 0.999081 1.23E-4
    879. 7090000. 0.001410 0.999565 1.34E-4
    858. 6920000. 0.001445 0.999820 6.30E-4
   851.5 6868000. 0.001456 0.99886 9.60E-4
    838. 6759000. 0.001479 0.99299 1.95E-4
    818. 6598000. 0.001516 0.99890 2.09E-4
    798. 6436000. 0.001554 0.99870 2.25E-4
    779. 6283000. 0.001592 0.99853 2.42E-4
   776.4 6262000. 0.001597 0.99877 2.10E-4
    760. 6130000. 0.001631 0.99837 2.63E-4
    742. 5985000. 0.001671 0.99822 2.84E-4
    725. 5847000. 0.001710 0.99809 3.06E-4
    707. 5702000. 0.001754 0.99793 3.32E-4
   704.9 5685000. 0.001759 0.99825 2.80E-4
    690. 5565000. 0.001797 0.99779 3.59E-4
    674. 5436000. 0.001839 0.99764 3.87E-4
    658. 5307000. 0.001884 0.99749 4.19E-4
    642. 5178000. 0.001931 0.99733 4.53E-4
   637.5 5142000. 0.001945 0.99783 3.70E-4
    627. 5057000. 0.001977 0.99717 4.89E-4
    612. 4936000. 0.002026 0.99701 5.28E-4
    597. 4815000. 0.002077 0.99683 5.71E-4
    583. 4702000. 0.002127 0.99665 6.16E-4
   572.9 4621000. 0.002164 0.99695 6.10E-4
    569. 4589000. 0.002179 0.99646 6.65E-4
    555. 4476000. 0.002234 0.99626 7.19E-4
    542. 4371000. 0.002287 0.99607 7.75E-4
    529. 4267000. 0.002344 0.99585 8.36E-4
   524.9 4234000. 0.002362 0.99667 7.30E-4
    516. 4162000. 0.002403 0.99563 9.03E-4
    504. 4065000. 0.002460 0.99540 9.72E-4
   500.3 4035000. 0.002478 0.99606 9.10E-4
    492. 3968000. 0.002520 0.99517 1.05E-3
    480. 3871000. 0.002583 0.99491 1.13E-3
    469. 3783000. 0.002643 0.99466 1.21E-3
    458. 3694000. 0.002707 0.99440 1.31E-3
   452.2 3647000. 0.002742 0.99527 1.00E-3
    447. 3605000. 0.002774 0.99411 1.41E-3
    436. 3517000. 0.002844 0.99381 1.52E-3
    426. 3436000. 0.002910 0.99352 1.63E-3
    415. 3347000. 0.002987 0.99317 1.77E-3
    406. 3275000. 0.003054 0.99287 1.89E-3
    396. 3194000. 0.003131 0.99251 2.03E-3
   395.4 3189000. 0.003136 0.99400 1.50E-3
    386. 3113000. 0.003212 0.99213 2.20E-3
    377. 3041000. 0.003289 0.99177 2.36E-3
    368. 2968000. 0.003369 0.99138 2.53E-3
    359. 2895000. 0.003453 0.99096 2.72E-3
    351. 2831000. 0.003532 0.99056 2.91E-3
    342. 2758000. 0.003625 0.99009 3.14E-3
    334. 2694000. 0.003712  0.9896 3.37E-3
    326. 2629000. 0.003803  0.9892 3.61E-3
    318. 2565000. 0.003899  0.9887 3.88E-3
    311. 2508000. 0.003986  0.9882 4.14E-3
    303. 2444000. 0.004092  0.9876 4.47E-3
   300.0 2420000. 0.004133  0.9880 5.13E-3
    296. 2387000. 0.004188  0.9871 4.77E-3
    289. 2331000. 0.004290  0.9865 5.11E-3
    282. 2274000. 0.004396  0.9859 5.47E-3
    275. 2218000. 0.004508  0.9853 5.88E-3
    269. 2170000. 0.004609  0.9847 6.25E-3
    262. 2113000. 0.004732  0.9840 6.72E-3
   260.0 2097000. 0.004769  0.9851 7.65E-3
    256. 2065000. 0.004843  0.9834 7.16E-3
    250. 2016000. 0.004959  0.9827 7.64E-3
    244. 1968000. 0.005081  0.9820 8.17E-3
    238. 1920000. 0.005209  0.9812 8.74E-3
    232. 1871000. 0.005344  0.9804 9.35E-3
    227. 1831000. 0.005462  0.9797 9.91E-3
    221. 1782000. 0.005610  0.9788 1.06E-2
    220. 1774000. 0.005635  0.9809 1.22E-2
    216. 1742000. 0.005740  0.9781 1.13E-2
    211. 1702000. 0.005876  0.9772 1.20E-2
    206. 1661000. 0.006018  0.9764 1.28E-2
    201. 1621000. 0.006168  0.9755 1.36E-2
    200. 1613000. 0.006199  0.9780 1.59E-2
    196. 1581000. 0.006325  0.9746 1.45E-2
    191. 1540000. 0.006491  0.9736 1.55E-2
    187. 1508000. 0.006630  0.9728 1.63E-2
    182. 1468000. 0.006812  0.9717 1.74E-2
    180. 1452000. 0.006888  0.9751 2.03E-2
    178. 1436000. 0.006965  0.9708 1.84E-2
    174. 1403000. 0.007125  0.9699 1.94E-2
    170. 1371000. 0.007293  0.9689 2.05E-2
    166. 1339000. 0.007469  0.9679 2.17E-2
    162. 1307000. 0.007653  0.9668 2.30E-2
    158. 1274000. 0.007847  0.9658 2.44E-2
    154. 1242000. 0.008051  0.9647 2.58E-2
    150. 1210000. 0.008265  0.9635 2.73E-2
    150. 1210000. 0.008265  0.9690 3.10E-2
    147. 1186000. 0.008434  0.9625 2.86E-2
    143. 1153000. 0.008670  0.9612 3.04E-2
    140. 1129000. 0.008856  0.9603 3.18E-2
    140. 1129000. 0.008856   0.951 4.16E-2
    136. 1097000. 0.009116  0.9589 3.39E-2
    133. 1073000. 0.009322  0.9578 3.57E-2
    130. 1048000. 0.009537  0.9570 3.75E-2
    130. 1048000. 0.009537   0.948 5.13E-2
    127. 1024000. 0.009762  0.9560 3.91E-2
    124. 1000000. 0.009998  0.9549 4.09E-2
    121. 975900. 0.01025  0.9538 4.27E-2
    120. 967900. 0.01033  0.9650 5.40E-2
    120. 967900. 0.01033   0.948 6.21E-2
    118. 951700. 0.01051  0.9525 4.47E-2
    115. 927500. 0.01078  0.9511 4.69E-2
    112. 903300. 0.01107  0.9497 4.92E-2
    110. 887200. 0.01127  0.9487 5.08E-2
    110. 887200. 0.01127  0.9680 5.99E-2
    110. 887200. 0.01127   0.950 7.03E-2
    107. 863000. 0.01159  0.9471 5.34E-2
    105. 846900. 0.01181  0.9680 6.25E-2
    104. 838800. 0.01192  0.9454 5.63E-2
    102. 822700. 0.01215  0.9443 5.83E-2
    100. 806550. 0.01240  0.9430 6.04E-2
    100. 806550. 0.01240  0.9670 6.53E-2
    100. 806550. 0.01240   0.943 7.75E-2
     98. 790400. 0.01265   0.939 8.01E-2
     96. 774300. 0.01291   0.938 8.36E-2
     94. 758200. 0.01319   0.936 8.73E-2
     92. 742000. 0.01348   0.935 9.11E-2
     90. 725900. 0.01378   0.936 9.44E-2
     88. 709800. 0.01409   0.936 9.81E-2
     86. 693600. 0.01442   0.934   0.102
     84. 677500. 0.01476   0.932   0.107
     82. 661400. 0.01512   0.933   0.114
     80. 645200. 0.01550   0.936   0.121
     78. 629100. 0.01590   0.942   0.128
     76. 613000. 0.01631   0.944   0.135
     74. 596800. 0.01675   0.947   0.137
     72. 580700. 0.01722   0.952   0.144
     70. 564600. 0.01771   0.952   0.156
     69. 556500. 0.01797   0.960   0.161
     68. 548400. 0.01823   0.975   0.168
     67. 540400. 0.01851   0.986   0.166
     66. 532300. 0.01879   1.009   0.163
     65. 524300. 0.01907   1.002   0.124
     64. 516200. 0.01937   0.980   0.106
     63. 508100. 0.01968   0.971   0.108
     62. 500100. 0.02000   0.964   0.112
     61. 492000. 0.02033   0.960   0.115
     60. 483900. 0.02066   0.955   0.118
     58. 467800. 0.02138   0.948   0.123
     56. 451700. 0.02214   0.942   0.129
     54. 435500. 0.02296   0.937   0.135
     52. 419400. 0.02384   0.931   0.143
     50. 403300. 0.02480   0.926   0.151
     45. 362900. 0.02755   0.884   0.129
     40. 322600. 0.03100   0.865   0.179
     35. 282290. 0.03542   0.858   0.241
     30. 242000. 0.04133   0.860   0.318
     29. 233900. 0.04275   0.863   0.336
     28. 225800. 0.04428   0.868   0.354
     27. 217800. 0.04592   0.873   0.372
     26. 209700. 0.04769   0.877   0.394
     25. 201600. 0.04959   0.888   0.418
    24.5 197600. 0.05061   0.897   0.427
     24. 193600. 0.05166   0.905   0.431
    23.5 189500. 0.05276   0.911   0.438
     23. 185500. 0.05391   0.915   0.436
    22.5 181500. 0.05510   0.911   0.443
     22. 177400. 0.05636   0.909   0.451
    21.5 173400. 0.05767   0.906   0.458
     21. 169400. 0.05904   0.898   0.471
    20.5 165300. 0.06048   0.893   0.493
     20. 161300. 0.06199   0.894   0.513
    19.5 157300. 0.06358   0.896   0.537
     19. 153200. 0.06526   0.904   0.560
    18.5 149200. 0.06702   0.912   0.582
     18. 145200. 0.06888   0.924   0.606
    17.5 141100. 0.07085   0.941   0.628
     17. 137100. 0.07293   0.959   0.643
    16.5 133100. 0.07514   0.975   0.660
     16. 129000. 0.07749   0.993   0.674
   15.75 127000. 0.07872    1.00   0.680
    15.5 125000. 0.07999    1.01   0.687
   15.25 123000. 0.08130    1.02   0.694
     15. 121000. 0.08266    1.03   0.700
   14.75 119000. 0.08405    1.04   0.704
    14.5 116900. 0.08551    1.05   0.703
   14.25 114900. 0.08700    1.05   0.705
     14. 112900. 0.08856    1.07   0.707
   13.75 110900. 0.09017    1.07   0.704
    13.5 108900. 0.09184    1.07   0.705
   13.25 106900. 0.09357    1.08   0.706
     13. 104800. 0.09537    1.08   0.706
   12.75 102800. 0.09724    1.08   0.709
    12.5 100800. 0.09919    1.08   0.709
   12.25  98800.  0.1012    1.07   0.712
     12.  96790.  0.1033    1.07   0.715
   11.75  94770.  0.1055    1.07   0.714
    11.5  92750.  0.1078    1.05   0.715
   11.25  90740.  0.1102    1.04   0.717
     11.  88720.  0.1127    1.01   0.727
    10.8  87110.  0.1148   0.993   0.747
    10.6  85490.  0.1170   0.974   0.759
    10.4  83880.  0.1192   0.951   0.800
    10.2  82270.  0.1216   0.948   0.833
     10.  80655.  0.1240   0.946   0.867
     9.8  79040.  0.1265   0.948   0.895
     9.6  77430.  0.1291   0.949   0.927
     9.4  75820.  0.1319   0.954   0.957
     9.2  74200.  0.1348   0.959   0.987
      9.  72590.  0.1378   0.966    1.01
     8.8  70980.  0.1409   0.972    1.05
     8.6  69360.  0.1442   0.981    1.08
     8.4  67750.  0.1476   0.992    1.11
     8.2  66140.  0.1512    1.00    1.13
     8.0  64520.  0.1550    1.01    1.15
     7.8  62910.  0.1590    1.02    1.18
     7.6  61300.  0.1631    1.02    1.21
     7.4  59680.  0.1675    1.03    1.24
     7.2  58070.  0.1722    1.03    1.27
     7.0  56460.  0.1771    1.03    1.30
     6.8  54840.  0.1823    1.02    1.35
     6.6  53230.  0.1879    1.01    1.40
     6.4  51620.  0.1937    1.01    1.46
     6.2  50010.  0.2000    1.00    1.54
     5.9  47590.  0.2101    1.02    1.67
     5.8  46780.  0.2138    1.04    1.73
     5.7  45970.  0.2175    1.06    1.78
     5.6  45170.  0.2214    1.09    1.83
     5.5  44360.  0.2254    1.12    1.88
     5.4  43550.  0.2296    1.16    1.94
     5.3  42750.  0.2339    1.21    1.99
     5.2  41940.  0.2384    1.27    2.04
     5.1  41130.  0.2431    1.33    2.07
     5.0  40330.  0.2480    1.40    2.10
     4.9  39520.  0.2530    1.47    2.11
     4.8  38710.  0.2583    1.53    2.11
     4.7  37910.  0.2638    1.59    2.10
     4.6  37100.  0.2695    1.63    2.09
     4.5  36290.  0.2755    1.67    2.07
     4.4  35490.  0.2818    1.71    2.06
     4.3  34680.  0.2883    1.73    2.03
     4.2  33880.  0.2952    1.74    2.01
     4.1  33070.  0.3024    1.74    1.99
     4.0  32260.  0.3100    1.73    1.98
     3.9  31460.  0.3179    1.72    1.98
     3.8  30650.  0.3263    1.69    1.99
     3.7  29840.  0.3351    1.66    2.02
     3.6  29040.  0.3444    1.64    2.07
     3.5  28230.  0.3542    1.63    2.11
     3.4  27420.  0.3647    1.62    2.17
     3.3  26620.  0.3757    1.61    2.23
     3.2  25810.  0.3875    1.61    2.30
     3.1  25000.  0.4000    1.61    2.36
     3.0  24200.  0.4133    1.61    2.44
     2.9  23390.  0.4275    1.62    2.52
     2.8  22580.  0.4428    1.62    2.61
     2.7  21780.  0.4592    1.64    2.71
     2.6  20970.  0.4769    1.66    2.81
     2.5  20160.  0.4959    1.67    2.93
     2.4  19360.  0.5166    1.71    3.06
     2.3  18550.  0.5391    1.75    3.19
     2.2  17740.  0.5636    1.80    3.33
     2.1  16940.  0.5904    1.85    3.48
     2.0  16130.  0.6199    1.93    3.65
    1.95  15730.  0.6358    1.98    3.74
    1.90  15320.  0.6526    2.02    3.82
    1.85  14920.  0.6702    2.08    3.91
    1.80  14520.  0.6888    2.14    4.00
    1.75  14110.  0.7085    2.21    4.09
    1.70  13710.  0.7293    2.28    4.18
    1.65  13310.  0.7514    2.36    4.25
    1.60  12900.  0.7749    2.43    4.31
    1.55  12500.  0.7999    2.48    4.38
    1.50  12100.  0.8266    2.53    4.47
    1.45  11690.  0.8551    2.59    4.55
    1.40  11290.  0.8856    2.65    4.63
    1.35  10890.  0.9184    2.69    4.73
    1.30  10490.  0.9537    2.74    4.85
    1.25  10080.  0.9919    2.80    4.97
    1.20   9679.   1.033    2.85    5.10
    1.15   9275.   1.078    2.91    5.24
    1.10   8872.   1.127    2.97    5.38
    1.05   8469.   1.181    3.01    5.55
    1.00   8065.   1.240    3.06    5.74
    0.95   7662.   1.305    3.11    5.98
    0.90   7259.   1.378    3.18    6.23
    0.85   6856.   1.459    3.27    6.51
    0.80   6452.   1.550    3.38    6.82
    0.75   6049.   1.653    3.49    7.13
    0.70   5646.   1.771    3.59    7.48
    0.65   5243.   1.907    3.69    7.92
    0.60   4839.   2.066    3.84    8.35
    0.55   4436.   2.254    3.90    8.92
    0.50   4033.   2.480    4.03    9.64
    0.45   3629.   2.755    4.20    10.2
    0.40   3226.   3.100    3.84    11.4
    0.38   3065.   3.263    3.92    12.1
    0.36   2904.   3.444    4.00    12.7
    0.34   2742.   3.647    4.07    13.4
    0.32   2581.   3.875    4.12    14.2
    0.30   2420.   4.133    4.19    15.0
    0.28   2258.   4.428    4.30    16.0
    0.26   2097.   4.769    4.29    17.1
    0.24   1936.   5.166    4.16    18.4
    0.22   1774.   5.636    4.11    20.2
    0.20   1613.   6.199    4.12    22.5
    0.19   1533.   6.526    4.30    23.8
    0.18   1452.   6.888    4.45    25.2
    0.17   1371.   7.293    4.68    26.8
    0.16   1290.   7.749    5.00    28.6
    0.15   1210.   8.266    5.45    30.6
    0.14   1129.   8.856    5.83    32.8
    0.13   1049.   9.537    6.44    35.3
    0.12   967.9   10.33    7.11    38.3
    0.11   887.2   11.27    8.12    41.8
    0.10   806.5   12.40    9.54    45.8
