;UO 
;UO Os.ASC: Values of n and k for polycrystalline osmium from
;UO various references in HOCI (pg. 326).  References are 1, 2, 3.
;UO 
;UO Copyright (c) 1995 by the Optical Society of America. Data
;UO from HANDBOOK OF OPTICAL CONSTANTS IN SOLIDS edited by Edward D.
;UO Palik. Copyright (c) 1985 by Academic Press, Inc. Reproduced by
;UO permission of the publisher.
;UO ---------------------------------------------------------------
;UO      eV           cm-1      um        n        k      n      k
;UO ---------------------------------------------------------------	
;N  7
;L  Energy[eV]  Wavelength[cm-1]  Wavelength[um]  n  k  n  k  
     39. 314500. -0.0001 -0.0001 0.03179    0.81    0.26
     38. 306500. -0.0001 -0.0001 0.03263    0.79    0.26
     37. 298400. -0.0001 -0.0001 0.03351    0.77    0.27
     36. 290400. -0.0001 -0.0001 0.03444    0.74    0.29
     35. 282300. -0.0001 -0.0001  0.0354    0.72    0.31
     34. 274200. -0.0001 -0.0001 0.03646    0.70    0.34
     33. 266200. -0.0001 -0.0001 0.03757    0.68    0.37
     32. 258100. -0.0001 -0.0001 0.03874    0.66    0.41
     31. 250000. 0.04000   0.590   0.390    0.65    0.45
     30. 242000. -0.0001 -0.0001 0.04133    0.65    0.49
    29.6 238700. -0.0001 -0.0001 0.04189    0.65    0.51
    29.2 235500. -0.0001 -0.0001 0.04246    0.65    0.53
    28.4 229100. -0.0001 -0.0001 0.04365    0.64    0.57
     28. 225800. -0.0001 -0.0001 0.04428    0.64    0.59
    27.2 219400. -0.0001 -0.0001 0.04558    0.65    0.62
    26.8 216200. -0.0001 -0.0001 0.04626    0.63    0.66
    26.4 212900. -0.0001 -0.0001 0.04696    0.65    0.69
     26. 209700. -0.0001 -0.0001 0.04768    0.66    0.72
    25.6 206500. -0.0001 -0.0001 0.04843    0.67    0.75
    24.8 200000. -0.0001 -0.0001 0.04999    0.70    0.80
    24.4 196800. -0.0001 -0.0001 0.05081    0.72    0.82
     24. 193600. -0.0001 -0.0001 0.05166    0.73    0.84
    23.6 190300. -0.0001 -0.0001 0.05253    0.75    0.86
    23.2 187100. -0.0001 -0.0001 0.05344    0.75    0.88
    22.8 183900. -0.0001 -0.0001  0.5438    0.77    0.90
    22.4 180700. -0.0001 -0.0001  0.5535    0.78    0.93
     22. 177400. -0.0001 -0.0001 0.05635    0.80    0.96
    21.6 174200. -0.0001 -0.0001 0.05740    0.83    0.99
    21.2 171000. -0.0001 -0.0001 0.05848    0.86    1.02
   21.01 169500.   0.059   0.653   0.973    0.87    1.04
    20.8 167800. -0.0001 -0.0001 0.0596l    0.89    1.05
    20.6 166100. -0.0001 -0.0001 0.06018    0.9l    1.07
    20.4 164500. -0.0001 -0.0001 0.06077    0.93    1.09
    20.2 162900. -0.0001 -0.0001 0.06138    0.96    1.10
    19.8 159700. -0.0001 -0.0001 0.06262    1.02    1.11
    19.6 158100. -0.0001 -0.0001 0.06326    1.05    1.11
    19.4 156500. -0.0001 -0.0001 0.06391    1.07    1.11
    19.2 154900. -0.0001 -0.0001 0.06457    1.10    1.10
    19.0 153200. -0.0001 -0.0001 0.06525    1.12    1.10
    18.8 151600. -0.0001 -0.0001 0.06595    1.14    1.10
    18.6 150000. -0.0001 -0.0001 0.06666    1.17    1.09
    18.4 148400. -0.0001 -0.0001 0.06738    1.19    1.08
    18.2 146800. -0.0001 -0.0001 0.06812    1.21    1.06
    18.0 145200. -0.0001 -0.0001  0.0688    1.23    1.04
    17.8 143600. -0.0001 -0.0001 0.06965    1.24    1.03
    17.6 141900. -0.0001 -0.0001 0.07044    1.26    1.01
    17.4 140300. -0.0001 -0.0001 0.07125    1.27    0.99
    17.2 138700. -0.0001 -0.0001 0.07208    1.27    0.97
    17.0 137100. -0.0001 -0.0001 0.07293    1.28    0.96
    16.8 135500. -0.0001 -0.0001 0.07380    1.28    0.94
    16.6 133900. -0.0001 -0.0001 0.07469    1.28    0.92
    16.4 132300. -0.0001 -0.0001 0.07560    1.28    0.90
    16.2 130700. -0.0001 -0.0001  0.7653    1.26    0.88
    16.0 129000. -0.0001 -0.0001 0.07749    1.25    0.87
    15.8 127400. -0.0001 -0.0001 0.07847    1.22    0.86
    15.6 125800. -0.0001 -0.0001 0.07947    1.20    0.86
    15.4 124200. -0.0001 -0.0001 0.08051    1.18    0.87
    15.2 122600. -0.0001 -0.0001 0.08157    1.17    0.89
    15.0 121000. -0.0001 -0.0001 0.08265    1.16    0.90
    14.8 119400. -0.0001 -0.0001 0.08377    1.16    0.91
    14.6 117800. -0.0001 -0.0001 0.08492    1.15    0.93
    14.4 116100. -0.0001 -0.0001 0.08610    1.16    0.94
    14.2 114500. -0.0001 -0.0001 0.08731    1.17    0.96
    14.0 112900. -0.0001 -0.0001 0.08856    1.17    0.96
    13.8 111300. -0.0001 -0.0001 0.08984    1.18    0.96
    13.6 109700. -0.0001 -0.0001 0.09116    1.17    0.97
    13.4 108100. -0.0001 -0.0001 0.09252    1.17    0.97
    13.2 106500. -0.0001 -0.0001 0.09392    1.16    0.98
    13.0 104800. -0.0001 -0.0001 0.09537    1.16    0.99
    12.8 103200. -0.0001 -0.0001 0.09686    1.15    1.0l
    12.6 101600. -0.0001 -0.0001 0.09840    1.17    1.12
    12.4 100000. -0.0001 -0.0001 0.09998    1.14    1.03
    12.2  98400. -0.0001 -0.0001  0.1016    1.14    1.06
    12.0  96790. -0.0001 -0.0001  0.1033    1.15    1.08
    11.8  95170. -0.0001 -0.0001  0.1051    1.16    1.10
    11.6  93560. -0.0001 -0.0001  0.1069    1.17    1.12
    11.4  91950. -0.0001 -0.0001  0.1088    1.19    1.15
    11.2  90330. -0.0001 -0.0001  0.1107    1.23    1.14
    11.0  88720. -0.0001 -0.0001  0.1127    1.24    1.13
    10.8  87110. -0.0001 -0.0001  0.1148    1.25    1.11
    10.6  85490. -0.0001 -0.0001  0.1170    1.24    1.10
    10.4  83880. -0.0001 -0.0001  0.1192    1.22    1.08
    10.3  83070. -0.0001 -0.0001  0.1204    1.20    1.08
    10.2  82270. -0.0001 -0.0001  0.1216    1.19    1.08
    10.0  80655. -0.0001 -0.0001  0.1240    1.16    1.10
     9.8  79040. -0.0001 -0.0001  0.1265    1.13    1.11
     9.6  77430. -0.0001 -0.0001  0.1292    1.10    1.14
     9.4  75820. -0.0001 -0.0001  0.1319    1.08    1.16
     9.2  74200. -0.0001 -0.0001  0.1348    1.04    1.19
     9.0  72590. -0.0001 -0.0001  0.1378    1.01    1.24
     8.8  70980. -0.0001 -0.0001  0.1409    0.98    1.29
     8.6  69360. -0.0001 -0.0001  0.1442    0.96    1.34
     8.4  67750. -0.0001 -0.0001  0.1476    0.94    1.40
     8.2  66140. -0.0001 -0.0001  0.1512    0.9l    1.48
     8.0  64520. -0.0001 -0.0001  0.1550    0.91    1.55
     7.8  62910. -0.0001 -0.0001  0.1590    0.90    1.63
     7.6  61300. -0.0001 -0.0001  0.1631    0.90    1.72
     7.4  59680. -0.0001 -0.0001  0.1675    0.9l    1.81
     7.2  58070. -0.0001 -0.0001  0.1722    0.92    1.91
     7.0  56460. -0.0001 -0.0001  0.1771    0.95    2.00
     6.8  54840. -0.0001 -0.0001  0.1823    0.97    2.11
     6.6  53230. -0.0001 -0.0001  0.1879    1.01    2.21
     6.4  51620. -0.0001 -0.0001  0.1937    1.06    2.33
     6.2  50010. -0.0001 -0.0001  0.2000    1.13    2.44
     6.0  48390. -0.0001 -0.0001  0.2066    1.20    2.54
     5.9  47590. -0.0001 -0.0001  0.2101    1.24    2.60
     5.8  46780. -0.0001 -0.0001  0.2138    1.27    2.65
     5.7  45970. -0.0001 -0.0001  0.2175    1.32    2.71
     5.6  45170. -0.0001 -0.0001  0.2214    1.36    2.77
     5.5  44360. -0.0001 -0.0001  0.2254    1.41    2.83
     5.4  43550. -0.0001 -0.0001  0.2296    1.46    2.88
     5.3  42750. -0.0001 -0.0001  0.2339    1.52    2.94
     5.2  41940. -0.0001 -0.0001  0.2384    1.58    3.00
     5.1  41140. -0.0001 -0.0001  0.2431    1.65    3.07
     5.0  40330. -0.0001 -0.0001  0.2480    1.74    3.12
     4.9  39520. -0.0001 -0.0001  0.2530    1.82    3.15
     4.8  38720. -0.0001 -0.0001  0.2583    1.88    3.19
     4.7  37910. -0.0001 -0.0001  0.2638    1.94    3.24
     4.6  37100. -0.0001 -0.0001  0.2695    2.01    3.31
     4.5  36300. -0.0001 -0.0001  0.2755    2.11    3.38
     4.4  35490. -0.0001 -0.0001  0.2818    2.24    3.44
     4.3  34680. -0.0001 -0.0001  0.2883    2.39    3.47
     4.2  33880. -0.0001 -0.0001  0.2952    2.53    3.44
     4.1  33070. -0.0001 -0.0001  0.3024    2.64    3.40
     4.0  32260. -0.0001 -0.0001  0.3100    2.71    3.34
     3.9  31460. -0.0001 -0.0001  0.3179    2.73    3.31
     3.8  30650. -0.0001 -0.0001  0.3263    2.73    3.32
     3.7  29840. -0.0001 -0.0001  0.3351    2.73    3.37
     3.6  29040. -0.0001 -0.0001  0.3444    2.75    3.45
     3.5  28230. -0.0001 -0.0001  0.3542    2.79    3.59
     3.4  27420. -0.0001 -0.0001  0.3647    2.93    3.79
     3.3  26620. -0.0001 -0.0001  0.3757    3.15    3.88
     3.2  25810. -0.0001 -0.0001  0.3874    3.29    3.96
     3.1  25000. -0.0001 -0.0001  0.3999    3.51    4.21
     3.0  24200. -0.0001 -0.0001  0.4133    4.05    4.40
     2.9  23390. -0.0001 -0.0001  0.4275    4.65    4.18
     2.8  22580. -0.0001 -0.0001  0.4428    5.05    3.78
     2.7  21780. -0.0001 -0.0001  0.4592    5.30    3.38
     2.6  20970. -0.0001 -0.0001  0.4769    5.36    2.82
     2.5  20160. -0.0001 -0.0001  0.4959    5.28    2.38
     2.4  19360. -0.0001 -0.0001  0.5166    5.10    2.01
     2.3  18550. -0.0001 -0.0001  0.5390    4.84    1.76
     2.2  17740. -0.0001 -0.0001  0.5636    4.58    1.62
     2.1  16940. -0.0001 -0.0001  0.5904    4.26    1.54
     2.0  16130. -0.0001 -0.0001  0.6199    3.98    1.60
    1.95  15730. -0.0001 -0.0001  0.6358    3.88    1.67
    1.90  15320. -0.0001 -0.0001  0.6525    3.81    1.75
    1.85  14920. -0.0001 -0.0001  0.6702    3.79    1.81
    1.80  14520. -0.0001 -0.0001  0.6888    3.78    1.83
    1.75  14110. -0.0001 -0.0001  0.7085    3.76    1.80
    1.70  13710. -0.0001 -0.0001  0.7293    3.70    1.75
    1.65  13310. -0.0001 -0.0001  0.7514    3.57    1.66
    1.60  12910. -0.0001 -0.0001  0.7749    3.36    1.62
    1.57  12660. -0.0001 -0.0001  0.7897    3.21    1.63
    1.53  12340. -0.0001 -0.0001  0.8103    2.99    1.70
    1.50  12100. -0.0001 -0.0001  0.8265    2.84    1.80
    1.45  11700. -0.0001 -0.0001  0.8550    2.65    2.01
    1.40  11290. -0.0001 -0.0001  0.8856    2.49    2.23
    1.35  10890. -0.0001 -0.0001  0.9184    2.35    2.48
    1.30  10490. -0.0001 -0.0001  0.9537    2.25    2.77
    1.25  10080. -0.0001 -0.0001  0.9918    2.19    3.04
    1.20   9679. -0.0001 -0.0001   1.033    2.16    3.35
    1.15   9276. -0.0001 -0.0001   1.078    2.17    3.59
    1.10   8872. -0.0001 -0.0001   1.127    2.15    3.84
    1.05   8469. -0.0001 -0.0001   1.181    2.12    4.11
    1.00   8065. -0.0001 -0.0001   1.240    2.09    4.41
    0.95   7662. -0.0001 -0.0001   1.305    2.05    4.74
    0.90   7259. -0.0001 -0.0001   1.378    2.03    5.10
    0.85   6856. -0.0001 -0.0001   1.459    2.01    5.51
    0.80   6452. -0.0001 -0.0001   1.550    2.00    5.95
    0.75   6049. -0.0001 -0.0001   1.653    2.00    6.46
    0.70   5646. -0.0001 -0.0001   1.771    2.02    7.04
    0.65   5243. -0.0001 -0.0001   1.907    2.11    7.68
    0.60   4839. -0.0001 -0.0001   2.066    2.21    8.37
    0.55   4436. -0.0001 -0.0001   2.254    2.33    9.12
    0.50   4033. -0.0001 -0.0001   2.480    2.41    9.97
    0.45   3630. -0.0001 -0.0001   2.755    2.43    11.0
    0.40   3226. -0.0001 -0.0001   3.100    2.45    12.3
    0.35   2823. -0.0001 -0.0001   3.542    2.33    14.1
    0.30   2420. -0.0001 -0.0001   4.133    2.23    16.6
    0.25   2016. -0.0001 -0.0001   4.959    2.35    20.0
    0.20   1613. -0.0001 -0.0001   6.199    2.44    25.1
    0.15   1210. -0.0001 -0.0001   8.265    2.90    33.6
    0.10   806.5 -0.0001 -0.0001   12.40    4.08    50.2
