;UO 
;UO Pb79Sn21.TeA:  Values of n and k for cubic lead tin tellluride
;UO (Pb0.79Sn0.21Te) from various references in HOCII (pg. 652).
;UO Reference is 4.   
;UO 
;UO From HANDBOOK OF OPTICAL CONSTANTS IN SOLIDS II edited by Edward D.
;UO Palik. Copyright (c) 1991 by Academic Press, Inc. Reproduced by
;UO permission of the publisher.
;UO ------------------------------------------------------------- 
;UO       eV    cm-1     um        n        k
;UO -------------------------------------------------------------
;N  5
;L  Energy[eV]  Wavelength[cm-1]  Wavelength[um]  n  k  
 0.02976     240   41.67   5.602   0.139
 0.02926     236   42.37   5.568   0.138
 0.02876     232   43.10   5.533   0.137
 0.02827     228   43.86   5.495   0.135
 0.02777     224   44.64   5.456   0.133
 0.02728     220   45.46   5.413   0.131
 0.02678     216   46.30   5.368   0.128
 0.02628     212   47.17   5.320   0.125
 0.02579     208   48.08   5.269   0.121
 0.02529     204   49.02   5.214   0.117
 0.02480     200   50.00   5.156   0.111
 0.02430     196   51.02   5.093   0.106
 0.02381     192   52.08   5.025  0.0989
 0.02331     188   53.19   4.952  0.0911
 0.02281     184   54.35   4.873  0.0820
 0.02232     180   55.56   4.788  0.0715
 0.02182     176   56.82   4.695  0.0592
 0.02133     172   58.14   4.593  0.0448
 0.02083     168   59.52   4.482  0.0280
 0.02033     164   60.98   4.360  0.0080
 0.01984     160   62.50   4.224  0.0157
 0.01934     156   64.10   4.074  0.0442
 0.01885     152   65.79   3.905  0.0789
 0.01835     148   67.57   3.714   0.122
 0.01785     144   69.45   3.497   0.176
 0.01736     140   71.43   3.247   0.246
 0.01686     136   73.53   2.955   0.341
 0.01637     132   75.76   2.608   0.478
 0.01587     128   78.13   2.194   0.691
 0.01537     124   80.65   1.731   1.055
 0.01488     120   83.33   1.345   1.622
 0.01438     116   86.21   1.145   2.264
 0.01389     112   89.29   1.066   2.876
 0.01339     108   92.59   1.047   3.455
 0.01289     104   96.16   1.062   4.015
 0.01240     100   100.0   1.100   4.570
 0.01190      96   104.2   1.156   5.129
 0.01141      92   108.7   1.229   5.702
 0.01091      88   113.6   1.321   6.299
 0.01041      84   119.0   1.432   6.928
 0.009919      80   125.0   1.566   7.600
 0.009423      76   131.6   1.730   8.325
 0.008927      72   138.9   1.930   9.118
 0.008431      68   147.1   2.180   9.997
 0.007935      64   156.2   2.498   10.98
 0.007439      60   166.7   2.912   12.11
 0.006943      56   178.6   3.471   13.41
 0.006447      52   192.3   4.253   14.93
 0.005951      48   208.3   5.405   16.73
 0.005455      44   227.3   7.195   18.84
