;UO 
;UO Pb8Sn2Te.ASC:  Values of n and k for cubic lead tin telluride
;UO (Pb0.8Sn0.2Te) from various references in HOCII (pg. 650). 
;UO References are 1, 3.   
;UO 
;UO Copyright (c) 1995 the Optical Society of America.  Contains data
;UO from HANDBOOK OF OPTICAL CONSTANTS IN SOLIDS II edited by Edward D.
;UO Palik. Copyright (c) 1991 by Academic Press, Inc. Reproduced by
;UO permission of the publisher.
;UO ----------------------------------------------------------- 
;UO     eV     cm-1       um           n         k  
;UO -----------------------------------------------------------	
;N  5
;L  Energy[eV]  Wavelength[cm-1]  Wavelength[um]  n  k  
  0.7052    5688   1.758 -0.0001   0.718
  0.6990    5638   1.774   6.476 -0.0001
  0.6913    5575   1.794 -0.0001   0.672
  0.6750    5444   1.837 -0.0001   0.665
  0.6582    5308   1.884 -0.0001   0.676
  0.6433    5189   1.927 -0.0001   0.659
  0.6287    5071   1.972 -0.0001   0.638
  0.6255    5045   1.982   6.332 -0.0001
  0.6116    4933   2.027 -0.0001   0.632
  0.5970    4815   2.077 -0.0001   0.610
  0.5798    4677   2.138 -0.0001   0.601
  0.5738    4628   2.161   6.258 -0.0001
  0.5644    4552   2.197 -0.0001   0.590
  0.5457    4401   2.272 -0.0001   0.570
  0.5183    4180   2.392 -0.0001   0.558
  0.4989    4024   2.485 -0.0001   0.548
  0.4772    3849   2.598 -0.0001   0.519
  0.4676    3772   2.651   6.171 -0.0001
  0.4617    3724   2.685 -0.0001   0.495
  0.4569    3685   2.714 -0.0001   0.472
  0.4367    3522   2.839 -0.0001   0.470
  0.4225    3408   2.935 -0.0001   0.470
  0.4074    3286   3.044 -0.0001   0.464
  0.3908    3152   3.172 -0.0001   0.459
  0.3745    3021   3.310 -0.0001   0.464
  0.3615    2916   3.430 -0.0001   0.454
  0.3486    2812   3.557   6.095 -0.0001
  0.3451    2783   3.593 -0.0001   0.448
  0.3281    2647   3.779 -0.0001   0.441
  0.3154    2543   3.932 -0.0001   0.433
  0.3009    2427   4.121 -0.0001   0.421
  0.2897    2336   4.280 -0.0001   0.408
  0.2794    2253   4.438 -0.0001   0.400
  0.2705    2182   4.583 -0.0001   0.386
  0.2545    2053   4.872 -0.0001   0.367
  0.2476    1997   5.008 -0.0001   0.351
  0.2408    1942   5.149 -0.0001   0.317
  0.2325    1875   5.334 -0.0001   0.286
  0.2283    1841   5.431   6.052 -0.0001
  0.2265    1827   5.475 -0.0001   0.252
  0.2220    1791   5.584 -0.0001   0.215
  0.2189    1766   5.664 -0.0001   0.177
  0.2175    1754   5.701 -0.0001   0.157
  0.2138    1725   5.799 -0.0001   0.135
  0.2123    1712   5.841 -0.0001   0.123
  0.1349    1088   9.190   6.053 -0.0001
