;UO 
;UO Pb91Sn09.TeA:  Values of n and k for cubic lead tin telluride
;UO (Pb0.91Sn0.09Te) from various references in HOCII (pg. 641). 
;UO Reference is 1.  
;UO 
;UO Copyright (c) 1995 the Optical Society of America.  Contains data
;UO from HANDBOOK OF OPTICAL CONSTANTS IN SOLIDS II edited by Edward D.
;UO Palik. Copyright (c) 1991 by Academic Press, Inc. Reproduced by
;UO permission of the publisher.
;UO ------------------------------------------------------------- 
;UO      eV     cm-1      um           n         k  
;UO -------------------------------------------------------------
;N  5
;L  Energy[eV]  Wavelength[cm-1]  Wavelength[um]  n  k  
   12.86  103700  0.0964   0.597 -0.0001
   12.82  103390  0.0967 -0.0001   0.461
   12.75  102850  0.0972   0.598 -0.0001
   12.71  102540  0.0975 -0.0001   0.462
   12.62  101790  0.0982 -0.0001   0.495
   12.59  101510  0.0985   0.600 -0.0001
   12.50  100810  0.0992 -0.0001   0.497
   12.41  100100  0.0999   0.602 -0.0001
   12.27   98988  0.1010 -0.0001   0.505
   12.25   98770  0.1012   0.589 -0.0001
   12.07   97358  0.1027 -0.0001   0.530
   12.03   97020  0.1031   0.572 -0.0001
   11.91   96092  0.1041 -0.0001   0.532
   11.83   95415  0.1048   0.574 -0.0001
   11.79   95068  0.1052 -0.0001   0.562
   11.62   93713  0.1067   0.577   0.557
   11.45   92366  0.1083 -0.0001   0.583
   11.39   91842  0.1089   0.579 -0.0001
   11.23   90591  0.1104 -0.0001   0.610
   11.21   90406  0.1106   0.581 -0.0001
   11.04   89011  0.1124 -0.0001   0.645
   10.96   88422  0.1131   0.600 -0.0001
   10.89   87833  0.1139 -0.0001   0.675
   10.78   86914  0.1151   0.625 -0.0001
   10.67   86083  0.1162 -0.0001   0.678
   10.58   85317  0.1172   0.659 -0.0001
   10.49   84591  0.1182 -0.0001   0.665
   10.41   83929  0.1192   0.674 -0.0001
   10.32   83212  0.1202 -0.0001   0.658
   10.22   82461  0.1213   0.659 -0.0001
   10.15   81840  0.1222 -0.0001   0.662
   9.973   80437  0.1243   0.660 -0.0001
   9.930   80090  0.1249 -0.0001   0.665
   9.750   78638  0.1272   0.630 -0.0001
   9.706   78284  0.1278 -0.0001   0.668
   9.549   77017  0.1298   0.600 -0.0001
   9.509   76695  0.1304 -0.0001   0.671
   9.328   75235  0.1329 -0.0001   0.705
   9.303   75033  0.1333   0.556 -0.0001
   9.158   73864  0.1354 -0.0001   0.756
   9.059   73065  0.1369   0.531 -0.0001
   8.996   72557  0.1378 -0.0001   0.786
   8.861   71468  0.1399   0.508 -0.0001
   8.746   70541  0.1418 -0.0001   0.819
   8.602   69379  0.1441   0.494 -0.0001
   8.525   68758  0.1454 -0.0001   0.878
   8.405   67790  0.1475   0.496 -0.0001
   8.336   67234  0.1487 -0.0001   0.961
   8.246   66508  0.1504   0.492 -0.0001
   8.155   65774  0.1520 -0.0001   1.001
   8.041   64855  0.1542 -0.0001   1.062
   8.025   64725  0.1545   0.495 -0.0001
   7.894   63669  0.1571   0.530 -0.0001
   7.875   63516  0.1574 -0.0001   1.105
   7.730   62346  0.1604 -0.0001   1.141
   7.632   61556  0.1625   0.553 -0.0001
   7.544   60846  0.1644 -0.0001   1.212
   7.406   59733  0.1674   0.619   1.244
   7.262   58572  0.1707 -0.0001   1.266
   7.199   58063  0.1722   0.653 -0.0001
   7.088   57168  0.1749 -0.0001   1.269
   7.038   56765  0.1762   0.702 -0.0001
   6.903   55676  0.1796   0.737 -0.0001
   6.871   55418  0.1805 -0.0001   1.292
   6.718   54184  0.1846   0.739 -0.0001
   6.673   53821  0.1858 -0.0001   1.291
   6.533   52692  0.1898   0.741 -0.0001
   6.496   52393  0.1909 -0.0001   1.353
   6.355   51256  0.1951   0.743   1.344
   6.186   49893  0.2004   0.752 -0.0001
   6.180   49845  0.2006 -0.0001   1.410
   6.037   48691  0.2054   0.802 -0.0001
   5.976   48197  0.2075 -0.0001   1.386
   5.945   47949  0.2086   0.803 -0.0001
   5.757   46436  0.2154   0.779 -0.0001
   5.752   46396  0.2155 -0.0001   1.344
   5.582   45025  0.2221   0.706 -0.0001
   5.549   44754  0.2235 -0.0001   1.369
   5.393   43494  0.2299 -0.0001   1.444
   5.379   43388  0.2305   0.644 -0.0001
   5.216   42071  0.2377   0.616 -0.0001
   5.209   42010  0.2380 -0.0001   1.548
   5.062   40829  0.2449   0.582 -0.0001
   5.017   40466  0.2471 -0.0001   1.642
   4.867   39258  0.2547   0.584 -0.0001
   4.848   39103  0.2557 -0.0001   1.743
   4.727   38128  0.2623 -0.0001   1.797
   4.678   37732  0.2650   0.586 -0.0001
   4.597   37079  0.2697 -0.0001   1.871
   4.489   36206  0.2762   0.588 -0.0001
   4.434   35763  0.2796 -0.0001   1.987
   4.304   34711  0.2881   0.590 -0.0001
   4.295   34641  0.2887 -0.0001   2.083
   4.184   33744  0.2964 -0.0001   2.159
   4.082   32923  0.3037 -0.0001   2.246
   4.077   32882  0.3041   0.581 -0.0001
   3.982   32119  0.3114 -0.0001   2.346
   3.907   31509  0.3174   0.609 -0.0001
   3.864   31162  0.3209 -0.0001   2.434
   3.766   30378  0.3292   0.633 -0.0001
   3.760   30327  0.3297 -0.0001   2.532
   3.641   29363  0.3406 -0.0001   2.687
   3.623   29218  0.3423   0.670 -0.0001
   3.526   28443  0.3516 -0.0001   2.832
   3.468   27968  0.3576   0.717 -0.0001
   3.413   27524  0.3633 -0.0001   2.989
   3.331   26869  0.3722   0.773 -0.0001
   3.296   26587  0.3761 -0.0001   3.125
   3.186   25697  0.3892 -0.0001   3.266
   3.182   25668  0.3896   0.857 -0.0001
   3.074   24790  0.4034 -0.0001   3.400
   3.017   24330  0.4110   0.941 -0.0001
   2.954   23827  0.4197 -0.0001   3.570
   2.867   23121  0.4325 -0.0001   3.739
   2.845   22945  0.4358   0.995 -0.0001
   2.772   22354  0.4474 -0.0001   3.901
   2.729   22009  0.4544 -0.0001   4.066
   2.720   21941  0.4558   1.100 -0.0001
   2.662   21472  0.4657 -0.0001   4.263
   2.607   21030  0.4755   1.223 -0.0001
   2.597   20948  0.4774 -0.0001   4.441
   2.519   20318  0.4922 -0.0001   4.621
   2.484   20033  0.4992   1.396 -0.0001
   2.482   20021  0.4995 -0.0001   4.808
   2.407   19410  0.5152 -0.0001   5.024
   2.394   19312  0.5178   1.632 -0.0001
   2.364   19070  0.5244 -0.0001   5.226
   2.340   18874  0.5298   1.812 -0.0001
   2.324   18742  0.5336 -0.0001   5.402
   2.278   18376  0.5442   2.000 -0.0001
   2.261   18232  0.5485 -0.0001   5.579
   2.245   18107  0.5523   2.205 -0.0001
   2.236   18037  0.5544 -0.0001   5.728
   2.195   17707  0.5648   2.477   5.865
   2.150   17340  0.5767 -0.0001   5.980
   2.142   17273  0.5790   2.705 -0.0001
   2.125   17141  0.5834   2.932 -0.0001
   2.104   16972  0.5892 -0.0001   6.064
   2.103   16963  0.5895   3.145 -0.0001
   2.071   16705  0.5986   3.315 -0.0001
   2.071   16704  0.5987 -0.0001   6.100
   2.070   16692  0.5991   3.513 -0.0001
   2.014   16241  0.6157   3.722 -0.0001
   2.000   16130  0.6200 -0.0001   6.101
   1.986   16018  0.6243   3.940 -0.0001
   1.972   15908  0.6286   4.249 -0.0001
   1.939   15641  0.6394 -0.0001   6.042
   1.919   15478  0.6461   4.521 -0.0001
   1.907   15383  0.6501 -0.0001   5.893
   1.892   15259  0.6554   4.786 -0.0001
   1.851   14929  0.6698   4.996 -0.0001
   1.845   14878  0.6722 -0.0001   5.683
   1.824   14712  0.6797   5.285 -0.0001
   1.809   14590  0.6854 -0.0001   5.532
   1.791   14446  0.6922   5.533 -0.0001
   1.784   14385  0.6952 -0.0001   5.316
   1.745   14072  0.7106   5.755 -0.0001
   1.725   13912  0.7188 -0.0001   5.128
   1.698   13693  0.7303 -0.0001   4.920
   1.686   13602  0.7352   5.915 -0.0001
   1.660   13385  0.7471 -0.0001   4.724
   1.612   12998  0.7694   6.099 -0.0001
   1.591   12831  0.7794 -0.0001   4.480
   1.531   12348  0.8099 -0.0001   4.339
   1.520   12256  0.8159   6.259 -0.0001
   1.468   11841  0.8445 -0.0001   4.260
   1.432   11551  0.8657   6.496 -0.0001
   1.403   11315  0.8838 -0.0001   4.137
   1.371   11059  0.9043   6.744 -0.0001
   1.338   10789  0.9269   6.951 -0.0001
   1.335   10770  0.9285 -0.0001   3.985
   1.297   10460  0.9560 -0.0001   3.777
   1.295   10442  0.9577   7.131 -0.0001
   1.274   10274  0.9734   7.285 -0.0001
   1.246   10049  0.9952 -0.0001   3.598
   1.240   10004  0.9997   7.486 -0.0001
   1.231    9929   1.007   7.674 -0.0001
   1.208    9743   1.026 -0.0001   3.419
   1.197    9652   1.036 -0.0001   3.278
   1.190    9598   1.042 -0.0001   3.054
   1.183    9543   1.048   7.933 -0.0001
   1.179    9511   1.051   8.094 -0.0001
   1.174    9472   1.056 -0.0001   2.873
   1.172    9456   1.058 -0.0001   2.716
   1.147    9247   1.081   8.190 -0.0001
   1.146    9243   1.082 -0.0001   2.563
   1.143    9220   1.085 -0.0001   2.356
   1.138    9178   1.090   8.260 -0.0001
   1.119    9022   1.108 -0.0001   2.198
   1.117    9008   1.110 -0.0001   2.069
   1.093    8813   1.135 -0.0001   1.795
   1.087    8763   1.141   8.183 -0.0001
   1.061    8558   1.168   8.080 -0.0001
   1.060    8549   1.170   7.972 -0.0001
   1.043    8415   1.188 -0.0001   1.607
   1.033    8330   1.201 -0.0001   1.373
   1.017    8202   1.219   7.803 -0.0001
  0.9949    8024   1.246 -0.0001   1.202
  0.9739    7855   1.273   7.624 -0.0001
  0.9696    7820   1.279 -0.0001   0.990
  0.9419    7597   1.316   7.439 -0.0001
  0.9199    7419   1.348   7.298 -0.0001
  0.9089    7330   1.364 -0.0001   0.787
  0.8766    7070   1.414   7.106 -0.0001
  0.8330    6718   1.488   6.876 -0.0001
  0.8221    6631   1.508 -0.0001   0.600
  0.7732    6237   1.603   6.717 -0.0001
  0.7417    5982   1.672   0.463 -0.0001
