;UO 
;UO Pd.ASC: Values of n and k for polycrystalline palladium from
;UO various references in HOCII (pg. 474).  References are 13,
;UO 15, 27, 31.
;UO 
;UO From HANDBOOK OF OPTICAL CONSTANTS IN SOLIDS II edited by Edward D.
;UO Palik. Copyright (c) 1991 by Academic Press, Inc. Reproduced by
;UO permission of the publisher.
;UO -----------------------------------------------------------
;UO    eV      cm-1         um            n         k 
;UO -----------------------------------------------------------
;N  5
;L  Energy[eV]  Wavelength[cm-1]  Wavelength[um]  n  k  
  525.36 4237300. 0.00236   0.996 3.8E-03
  392.36 3164600. 0.00316   0.998 4.8E-03
  330.63 2666700. 0.00375   0.995 3.5E-03
  277.37 2237100. 0.00447   0.993 2.1E-03
  247.97 2000000. 0.00500   0.992 2.3E-03
  206.64 1666700. 0.00600   0.986 2.8E-03
  183.41 1479300. 0.00676   0.982 3.1E-03
  165.31 1333300. 0.00750   0.980 3.3E-03
  123.99 1000000. 0.01000   0.960 3.7E-03
  108.76 877200. 0.01140   0.938 3.9E-03
   99.19 800020. 0.01250   0.910 9.0E-03
   91.50 737990. 0.01355   0.871 2.5E-02
   82.66 666690. 0.01500   0.851 7.2E-02
   72.34 583460. 0.01714   0.835   0.148
   61.99 499980. 0.02000   0.850    0.22
   51.02 411500. 0.02430   0.879   0.244
   48.38 390210. 0.02563   0.851   0.224
   40.81 329150. 0.03038   0.821   0.247
   37.92 305840. 0.03270   0.799   0.310
   34.75 280280. 0.03568   0.758   0.307
   32.69 263660. 0.03793   0.763   0.420
   30.55 246400. 0.04059   0.794   0.451
   27.69 223330. 0.04478   0.780   0.495
   26.91 217040. 0.04607   0.765   0.547
   25.33 204300. 0.04895   0.809   0.625
   23.00 185510. 0.05391   0.853   0.763
   21.22 171150. 0.05843   0.913   0.850
   20.12 162280. 0.06163   0.990   0.790
   18.48 149050. 0.06709   1.030   0.766
   17.26 139210. 0.07185   1.060   0.778
   16.85 135900. 0.07359   1.070   0.824
   16.67 134450. 0.07437   0.936   0.744
   14.86 119850. 0.08345   1.240   0.877
   14.12 113880. 0.08780   1.230   0.815
   13.48 108720. 0.09198   1.360   0.796
   13.30 107270. 0.09321   1.300   0.749
   12.54 101140. 0.09888   1.280   0.733
   12.00  96788.  0.1033    1.34    0.66
   11.50  92753.  0.1078    1.33    0.65
   11.00  88720.  0.1127    1.31    0.65
   10.50  84688.  0.1181    1.30    0.66
   10.00  80655.  0.1240    1.28    0.66
    9.50  76622.  0.1305    1.25    0.66
    9.00  72589.  0.1378    1.19    0.68
    8.50  68557.  0.1459    1.10    0.72
    8.00  64524.  0.1550    0.98    0.84
    7.50  60491.  0.1653    0.89    1.02
    7.00  56458.  0.1771    0.85    1.23
    6.50  52426.  0.1907    0.86    1.44
    5.98  48232.  0.2073    0.87    1.60
    5.85  47183.  0.2119    0.89    1.65
    5.73  46215.  0.2164    0.91    1.70
    5.60  45167.  0.2214    0.92    1.76
    5.48  44199.  0.2263    0.94    1.81
    5.36  43231.  0.2313    0.97    1.86
    5.23  42182.  0.2371    1.00    1.91
    5.11  41215.  0.2426    1.04    1.95
    4.98  40166.  0.2490    1.08    1.99
    4.86  39198.  0.2551    1.11    2.03
    4.74  38230.  0.2616    1.13    2.07
    4.61  37182.  0.2689    1.16    2.10
    4.49  36214.  0.2761    1.19    2.13
    4.36  35165.  0.2844    1.18    2.18
    4.24  34198.  0.2924    1.18    2.23
    4.12  33230.  0.3009    1.20    2.29
    3.99  32181.  0.3107    1.21    2.35
    3.87  31213.  0.3204    1.21    2.42
    3.74  30165.  0.3315    1.20    2.50
    3.62  29197.  0.3425    1.22    2.57
    3.50  28229.  0.3542    1.23    2.65
    3.37  27181.  0.3679    1.24    2.74
    3.25  26213.  0.3815    1.26    2.83
    3.12  25164.  0.3974    1.30    2.93
    3.00  24196.  0.4133    1.33    3.03
    2.88  23229.  0.4305    1.37    3.14
    2.75  22180.  0.4509    1.41    3.26
    2.63  21212.  0.4714    1.46    3.39
    2.50  20164.  0.4959    1.52    3.54
    2.38  19196.  0.5209    1.57    3.68
    2.26  18228.  0.5486    1.64    3.84
    2.13  17179.  0.5821    1.68    4.02
    2.01  16212.  0.6168    1.75    4.21
    1.88  15163.  0.6595    1.80    4.42
    1.76  14195.  0.7045    1.86    4.65
    1.64  13227.  0.7560    1.95    4.89
    1.51  12179.  0.8211    2.06    5.19
    1.39  11211.  0.8920    2.33    5.50
    1.26  10162.  0.9840    2.34    5.89
    1.14   9195.   1.088    2.52    6.33
    1.02   8227.   1.215    2.66    6.90
    0.89   7178.   1.393    2.80    7.65
    0.77   6210.   1.610    3.01    8.59
    0.64   5162.   1.937    3.34    9.89
    0.60   4839.   2.066    3.80    9.96
    0.58   4678.   2.138    3.85   10.23
    0.56   4517.   2.214    3.92   10.49
    0.54   4355.   2.296    3.97   10.79
    0.52   4194.   2.384    4.03   11.10
    0.50   4033.   2.480    4.10   11.44
    0.48   3871.   2.583    4.20   11.77
    0.46   3710.   2.695    4.27   12.11
    0.44   3549.   2.818    4.31   12.46
    0.42   3387.   2.952    4.31   12.85
    0.40   3226.   3.100    4.27   13.27
    0.38   3065.   3.263    4.17   13.77
    0.36   2904.   3.444    3.98   14.41
    0.34   2742.   3.647    3.80   15.18
    0.32   2581.   3.875    3.56   16.21
    0.30   2420.   4.133    3.56   17.27
    0.28   2258.   4.428    3.30   18.52
    0.26   2097.   4.769    3.11   20.15
    0.24   1936.   5.166    3.15   21.97
    0.22   1774.   5.636    3.10   24.06
    0.20   1613.   6.199    3.07   26.59
    0.19   1532.   6.526    3.07   28.09
    0.18   1452.   6.888    3.15   29.71
    0.17   1371.   7.293    3.20   31.46
    0.16   1290.   7.749    3.17   33.45
    0.15   1210.   8.266    3.13   35.82
    0.14   1129.   8.856    3.11   38.48
    0.13   1048.   9.537    3.36   41.52
    0.12   967.9   10.33    3.60   45.08
    0.11   887.2   11.27    3.85   49.21
    0.10   806.5   12.40    4.13   54.15
