;UO 
;UO Pt.ASC: Values of n and k for polycrystalline platinum from
;UO various references in HOCI (pg. 336).  References are 21,
;UO 23, 25.
;UO 
;UO Copyright (c) 1995 the Optical Society of America.  Contains data
;UO from HANDBOOK OF OPTICAL CONSTANTS IN SOLIDS edited by Edward D.
;UO Palik. Copyright (c) 1985 by Academic Press, Inc. Reproduced by
;UO permission of the publisher.
;UO -----------------------------------------------------------
;UO      eV    cm-1      um            n            k 
;UO -----------------------------------------------------------	
;N  5
;L  Energy[eV]  Wavelength[cm-1]  Wavelength[um]  n  k  
    2000 16131000 0.0006199 0.999528 1.23E-4
    1952 15744000 0.0006351 0.999476 1.33E-4
    1905 15365000 0.0006508 0.999421 1.43E-4
    1860 15002000 0.0006665 0.999377 1.54E-4
    1815 14639000 0.0006831 0.999332 1.67E-4
    1772 14292000 0.0006997 0.999288 1.80E-4
    1730 13953000 0.0007166 0.999243 1.94E-4
    1688 13615000 0.0007344 0.999197 2.09E-4
    1648 13292000 0.0007523 0.999150 2.25E-4
    1609 12977000 0.0007705 0.999102 2.43E-4
    1570 12663000 0.0007897 0.999051 2.62E-4
    1533 12364000 0.0008087 0.999000 2.82E-4
    1496 12066000 0.0008287 0.99895 3.04E-4
    1460 11776000 0.0008492 0.99889 3.27E-4
    1426 11501000 0.0008694 0.99883 3.51E-4
    1392 11227000 0.0008906 0.99877 3.78E-4
    1358 10953000 0.0009129 0.99871 4.06E-4
    1326 10695000 0.0009350 0.99865 4.38E-4
    1294 10437000 0.0009581 0.99858 4.72E-4
    1263 10187000 0.0009816 0.99851 5.08E-4
    1233 9944800 0.001005 0.99844 5.46E-4
    1204 9710900 0.001030 0.99837 5.86E-4
    1175 9477000 0.001055 0.99829 6.30E-4
    1147 9251100 0.001081 0.99821 6.77E-4
    1119 9025300 0.001108 0.99813 7.29E-4
    1093 8815600 0.001134 0.99805 7.82E-4
    1067 8605900 0.001162 0.99796 8.40E-4
    1041 8396200 0.001191 0.99787 9.05E-4
    1016 8194500 0.001220 0.99778 9.72E-4
     992 8001000 0.001250 0.99769 l.04E-3
     968 7807400 0.001281 0.99759 1.12E-3
     945 7621900 0.001312 0.99749 1.20E-3
     923 7444500 0.001343 0.99739 1.28E-3
     901 7267000 0.001376 0.99729 1.37E-3
     879 7089600 0.001410 0.99718 1.47E-3
     858 6920200 0.001445 0.99707 1.57E-3
     838 6758900 0.001479 0.99697 1.68E-3
     818 6597600 0.001516 0.99686 1.79E-3
     798 6436300 0.001554 0.99675 1.92E-3
     779 6283000 0.001592 0.99666 2.05E-3
     760 6129800 0.001631 0.99656 2.16E-3
     742 5984600 0.001671 0.99646 2.27E-3
     725 5847500 0.001710 0.99634 2.38E-3
     707 5702300 0.001754 0.99620 2.51E-3
     690 5565200 0.001797 0.99606 2.66E-3
     674 5436100 0.001839 0.99592 2.82E-3
     658 5307100 0.001884 0.99579 2.99E-3
     642 5178100 0.001931 0.99566 3.19E-3
     627 5057100 0.001977 0.99555 3.37E-3
     612 4936100 0.002026 0.99544 3.55E-3
     597 4815100 0.002077 0.99532 3.76E-3
     583 4702200 0.002127 0.99521 3.96E-3
     569 4589300 0.002179 0.99513 4.17E-3
     555 4476400 0.002234 0.99508 4.37E-3
     542 4371500 0.002287 0.99498 4.46E-3
     529 4266600 0.002344 0.99482 4.54E-3
     516 4161800 0.002403 0.99458 4.74E-3
     504 4065000 0.002460 0.99437 4.98E-3
     492 3968200 0.002520 0.99419 5.23E-3
     480 3871400 0.002584 0.99400 5.51E-3
     469 3782700 0.002643 0.99384 5.78E-3
     458 3694000 0.002707 0.99368 6.07E-3
     447 3605300 0.002774 0.99353 6.38E-3
     436 3516600 0.002844 0.99338 6.70E-3
     426 3435900 0.002910 0.99324 7.00E-3
     415 3347200 0.002987 0.99310 7.37E-3
     406 3274600 0.003054 0.99300 7.70E-3
     396 3193900 0.003131 0.99293 8.08E-3
     386 3113300 0.003212 0.99290 8.36E-3
     377 3040700 0.003289 0.99284 8.59E-3
     368 2968100 0.003369 0.99273 8.84E-3
     359 2895500 0.003453 0.99260 9.09E-3
     351 2831000 0.003532 0.99246 9.33E-3
     342 2758400 0.003625 0.99228 9.62E-3
     334 2693900 0.003712 0.99212 9.88E-3
     326 2629400 0.003803 0.99193 l.02E-2
     318 2564800 0.003899 0.99174 1.05E-2
     311 2508400 0.003986 0.99155 1.07E-2
     303 2443800 0.004092 0.99130 1.11E-2
     296 2387400 0.004188 0.99108 1.14E-2
     289 2330900 0.004290 0.99085 1.17E-2
     282 2274500 0.004396 0.99060 1.20E-2
     275 2218000 0.004508 0.99034 1.24E-2
     269 2169600 0.004609 0.99010 1.27E-2
     262 2113200 0.004732  0.9898 1.31E-2
     256 2064800 0.004843  0.9896 1.35E-2
     250 2016400 0.004959  0.9893 1.38E-2
     244 1968000 0.005081  0.9891 1.41E-2
     238 1919600 0.005209  0.9888 1.45E-2
     232 1871200 0.005344  0.9885 1.48E-2
     227 1830900 0.005462  0.9881 1.51E-2
     221 1782500 0.005610  0.9877 1.54E-2
     216 1742100 0.005740  0.9874 1.58E-2
     211 1701800 0.005876  0.9870 1.61E-2
     206 1661500 0.006018  0.9866 1.64E-2
     201 1621200 0.006168  0.9863 1.68E-2
     196 1580800 0.006325  0.9859 1.69E-2
     191 1540500 0.006491  0.9855 1.69E-2
     187 1508200 0.006630  0.9850 1.69E-2
     182 1467900 0.006812  0.9841 1.70E-2
     178 1435700 0.006965  0.9834 1.70E-2
     174 1403400 0.007125  0.9826 1.70E-2
     170 1371100 0.007293  0.9816 1.70E-2
     166 1338900 0.007469  0.9805 1.70E-2
     162 1306600 0.007653  0.9793 1.70E-2
     158 1274300 0.007847  0.9778 1.71E-2
     154 1242100 0.008051  0.9762 1.72E-2
     150 1209800 0.008265  0.9745 1.74E-2
     147 1185600 0.008434  0.9730 1.75E-2
     143 1153400 0.008670  0.9708 1.77E-2
     140 1129200 0.008856  0.9690 1.79E-2
     136 1096900 0.009116  0.9661 1.81E-2
     133 1072700 0.009322  0.9637 1.86E-2
     130 1048500 0.009537  0.9612 1.92E-2
     127 1024300 0.009762  0.9584 1.99E-2
     124 1000100 0.009998  0.9553 2.06E-2
     121  975930 0.01025  0.9518 2.18E-2
     118  951730 0.01051  0.9481 2.34E-2
     115  927530 0.01078  0.9442 2.50E-2
     112  903340 0.01107  0.9399 2.71E-2
     110  887210 0.01127  0.9369 2.87E-2
     107  863010 0.01159  0.9322 3.14E-2
     104  838810 0.01192  0.9269 3.50E-2
     102  822680 0.01215  0.9232 3.77E-2
     100  806550 0.01240  0.9190 4.08E-2
   82.66  666670   0.015   0.885  7.5E-2
   77.49  625000   0.016   0.892  8.6E-2
   72.93  588240   0.017   0.893  9.9E-2
   68.88  555560   0.018   0.892   0.114
   65.26  526320   0.019   0.887   0.129
   61.99  500000   0.020   0.882   0.145
   59.04  476190   0.021   0.877   0.162
   56.36  454550   0.022   0.869   0.180
   53.91  434780   0.023   0.860   0.198
   51.66  416670   0.024   0.881   0.217
   49.59  400000   0.025   0.872   0.157
   47.69  384620   0.026   0.862   0.166
   45.92  370370   0.027   0.850   0.180
   44.28  357140   0.028   0.838   0.194
   42.75  344830   0.029   0.826   0.210
   41.33  333330   0.030   0.810   0.227
   40.00  322580   0.031   0.794   0.249
   38.75  312500   0.032   0.779   0.272
   37.57  303030   0.033   0.762   0.297
   36.47  294120   0.034   0.742   0.322
   35.42  285710   0.035   0.722   0.350
   34.44  277780   0.036   0.696   0.379
   33.51  270270   0.037   0.674   0.412
   32.63  263160   0.038   0.663   0.447
   31.79  256410   0.039   0.675   0.502
   31.00  250000   0.040   0.687   0.551
   30.24  243900   0.041   0.699   0.581
   29.52  238100   0.042   0.709   0.573
   28.83  232560   0.043   0.718   0.654
   28.18  227270   0.044   0.722   0.579
   27.55  222220   0.045   0.722   0.605
   26.95  217390   0.046   0.719   0.622
   26.38  212770   0.047   0.717   0.637
   25.83  208330   0.048   0.714   0.656
   25.30  204080   0.049   0.712   0.679
   24.80  200000   0.050   0.709   0.718
   24.31  196080   0.051   0.709   0.766
   23.84  192310   0.052   0.711   0.797
   23.39  188680   0.053   0.713   0.826
   22.96  185190   0.054   0.720   0.845
   22.54  181820   0.055   0.729   0.867
   22.14  178570   0.056   0.744   0.887
   21.75  175440   0.057   0.763   0.905
   21.38  172410   0.058   0.792   0.924
   21.01  169490   0.059   0.812   0.935
   20.66  166670   0.060   0.835   0.938
   20.33  163930   0.061   0.862   0.937
   20.00  161290   0.062   0.887   0.930
   19.68  158730   0.063   0.914   0.924
   19.37  156250   0.064   0.937   0.915
   19.07  153850   0.065   0.957   0.900
   18.79  151520   0.066   0.975   0.884
   18.51  149250   0.067   0.993   0.869
   18.23  147060   0.068    1.01   0.856
   17.97  144930   0.069    1.02   0.837
   17.71  142860   0.070    1.03   0.826
   17.22  138890   0.072    1.04   0.809
   16.75  135140   0.074    1.05   0.817
   16.31  131580   0.076    1.06   0.835
   15.90  128210   0.078    1.07   0.850
   15.50  125000   0.080    1.08   0.866
   15.12  121950   0.082    1.09   0.878
   14.76  119050   0.084    1.10   0.891
   14.42  116280   0.086    1.12   0.899
   14.09  113640   0.088    1.14   0.903
   13.78  111110   0.090    1.16   0.912
   13.48  108700   0.092    1.18   0.919
   13.19  106380   0.094    1.20   0.930
   12.92  104170   0.096    1.19   0.942
   12.65  102040   0.098    1.17   0.957
   12.40  100000   0.100    1.19   0.981
   12.16   98040   0.102    1.22    1.01
   11.92   96150   0.104    1.22    1.02
   11.70   94340   0.106    1.23    1.04
   11.48   92590   0.108    1.24    1.05
   11.27   90910   0.110    1.24    1.07
   11.07   89290   0.112    1.25    1.09
   10.88   87720   0.114    1.27    1.11
   10.69   86210   0.116    1.28    1.13
   10.51   84750   0.118    1.30    1.15
   10.33   83330   0.120    1.32    1.17
   10.16   81970   0.122    1.35    1.18
   9.999   80650   0.124    1.37    1.18
   9.840   79370   0.126    1.40    1.17
   9.686   78130   0.128    1.42    1.17
   9.537   76920   0.130    1.43    1.16
   9.393   75760   0.132    1.43    1.15
   9.253   74630   0.134    1.43    1.15
   9.117   73530   0.136    1.43    1.14
   8.984   72460   0.138    1.43    1.14
   8.856   71430   0.140    1.45    1.15
   8.731   70420   0.142    1.46    1.15
   8.610   69440   0.144    1.46    1.15
   8.492   68490   0.146    1.47    1.15
   8.377   67570   0.148    1.47    1.15
   8.266   66670   0.150    1.47    1.15
   7.999   64520   0.155    1.46    1.16
   7.749   62500   0.160    1.46    1.22
   7.514   60610   0.165    1.48    1.21
   7.293   58820   0.170    1.49    1.22
   7.085   57140   0.175    1.46    1.23
   6.888   55560   0.180    1.42    1.23
   6.702   54050   0.185    1.38    1.24
   6.526   52630   0.190    1.34    1.26
   6.358   51280   0.195    1.30    1.29
   6.199   50000   0.200    1.24    1.34
   6.199   50000   0.200    1.39    1.35
     6.1   49200  0.2033    1.38    1.37
   6.048   48780   0.205    1.19    1.40
     6.0   48390  0.2066    1.38    1.40
     5.9   47590  0.2101    1.37    1.43
     5.8   46780  0.2138    1.36    1.47
     5.6   45170  0.2214    1.36    1.54
     5.4   43550  0.2296    1.36    1.61
     5.2   41940  0.2384    1.36    1.67
     5.0   40330  0.2480    1.36    1.76
     4.8   38720  0.2583    1.38    1.85
     4.6   37100  0.2695    1.39    1.95
     4.4   35490  0.2818    1.43    2.04
     4.2   33880  0.2952    1.45    2.14
     4.0   32260  0.3100    1.49    2.25
     3.9   31460  0.3179    1.51    2.32
     3.8   30650  0.3263    1.53    2.37
     3.7   29840  0.3351    1.56    2.42
     3.6   29040  0.3444    1.58    2.48
     3.5   28230  0.3542    1.60    2.55
     3.4   27420  0.3647    1.62    2.62
     3.3   26620  0.3757    1.65    2.69
     3.2   25810  0.3874    1.68    2.76
     3.1   25000  0.3999    1.72    2.84
     3.0   24200  0.4133    1.75    2.92
     2.9   23390  0.4275    1.79    3.01
     2.8   22580  0.4428    1.83    3.10
     2.7   21780  0.4592    1.87    3.20
     2.6   20970  0.4769    1.91    3.30
     2.5   20160  0.4959    1.96    3.42
     2.4   19360  0.5166    2.03    3.54
     2.3   18550  0.5390    2.10    3.67
     2.2   17740  0.5636    2.17    3.77
     2.1   16940  0.5904    2.23    3.92
     2.0   16130  0.6199    2.30    4.07
     1.9   15320  0.6525    2.38    4.26
     1.8   14520  0.6888    2.51    4.43
     1.7   13710  0.7293    2.63    4.63
     1.6   12910  0.7749    2.76    4.84
     1.5   12100  0.8265    2.92    5.07
     1.4   11290  0.8856    3.10    5.32
     1.3   10490  0.9537    3.29    5.61
     1.2    9679   1.033    3.55    5.92
    1.15    9276   1.078    3.70    6.08
     1.1    8872   1.127    3.86    6.24
    1.05    8469   1.181    4.03    6.44
     1.0    8065   1.240    4.25    6.62
    0.95    7662   1.305    4.50    6.77
    0.90    7259   1.378    4.77    6.91
    0.88    7098   1.409    4.91    6.95
    0.85    6856   1.459    5.05    6.98
    0.82    6614   1.512    5.17    7.01
    0.80    6452   1.550    5.31    7.04
    0.77    6210   1.610    5.44    7.04
    0.75    6049   1.653    5.57    7.02
    0.73    5888   1.698    5.67    6.95
    0.70    5646   1.771    5.71    6.83
    0.68    5485   1.823    5.66    6.73
    0.65    5243   1.907    5.52    6.66
    0.63    5081   1.968    5.34    6.70
    0.60    4839   2.066    5.13    6.75
    0.57    4597   2.175    4.86    6.89
    0.55    4436   2.254    4.58    7.14
    0.52    4194   2.384    4.30    7.40
    0.50    4073   2.455    3.91    7.71
    0.47    3791   2.638    3.36    8.40
    0.45    3629   2.755    3.03    9.31
    0.43    3468   2.883    2.92    10.3
    0.40    3226   3.100    2.81    11.4
    0.38    3065   3.263    3.03    12.5
    0.35    2823   3.542    3.28    13.7
    0.32    2581   3.875    3.57    14.9
    0.30    2420   4.133    3.92    16.2
    0.28    2258   4.428    4.24    17.7
    0.25    2016   4.959    4.70    19.4
    0.22    1774   5.636    5.24    21.5
    0.20    1613   6.199    5.90    24.0
    0.17    1371   7.293    6.78    27.2
    0.15    1210   8.266    8.18    31.2
    0.13    1049   9.537    9.91    36.7
    0.10   806.5   12.40    13.2    44.7
