;UO 
;UO Rh.ASC: Values of n and k for polycrystalline rhodium from 
;UO various references in HOCI (pg. 344).  References are 9, 15, 16.
;UO 
;UO Copyright (c) 1995 the Optical Society of America.  Contains data
;UO from HANDBOOK OF OPTICAL CONSTANTS IN SOLIDS edited by Edward D.
;UO Palik. Copyright (c) 1985 by Academic Press, Inc. Reproduced by
;UO permission of the publisher.
;UO ---------------------------------------------------------------   
;UO      eV    cm-1        um             n             k
;UO ---------------------------------------------------------------
;N  5
;L  Energy[eV]  Wavelength[cm-1]  Wavelength[um]  n  k  
   2000. 16131000. 0.0006199 0.999512 7.50E-5
   1952. 15744000. 0.0006351 0.999486 8.16E-5
   1905. 15365000. 0.0006508 0.999459 8.87E-5
   1860. 15002000. 0.0006665 0.999432 9.63E-5
   1815. 14639000. 0.0006831 0.999402 1.05E-4
   1772. 14292000. 0.0006997 0.999372 1.14E-4
   1730. 13953000. 0.0007166 0.999341 1.24E-4
   1688. 13615000. 0.0007345 0.999307 1.34E-4
   1648. 13292000. 0.0007523 0.999272 1.46E-4
   1609. 12977000. 0.0007705 0.999236 1.58E-4
   1570. 12663000. 0.0007897 0.999198 1.71E-4
   1533. 12364000. 0.0008087 0.999158 1.86E-4
   1496. 12066000. 0.0008287 0.999117 2.02E-4
   1460. 11776000. 0.0008492 0.999073 2.19E-4
   1426. 11501000. 0.0008694 0.999029 2.36E-4
   1392. 11227000. 0.0008906 0.99898 2.56E-4
   1358. 10953000. 0.0009129 0.99893 2.78E-4
   1326. 10695000. 0.0009350 0.99888 3.00E-4
   1294. 10437000. 0.0009581 0.99883 3.25E-4
   1263. 10187000. 0.0009816 0.99877 3.52E-4
   1233. 9944800. 0.001005 0.99871 3.81E-4
   1204. 9710900. 0.001030 0.99865 4.13E-4
   1175. 9477000. 0.001055 0.99859 4.47E-4
   1147. 9251100. 0.001081 0.99852 4.84E-4
   1119. 9025300. 0.001108 0.99845 5.25E-4
   1093. 8815600. 0.001134 0.99839 5.67E-4
   1067. 8605900. 0.001162 0.99831 6.14E-4
   1041. 8396200. 0.001191 0.99824 6.66E-4
   1016. 8194500. 0.001220 0.99816 7.21E-4
    992. 8001000. 0.001250 0.99808 7.79E-4
    968. 7807400. 0.001281 0.99800 8.42E-4
    945. 7621900. 0.001312 0.99792 9.10E-4
    923. 7444500. 0.001343 0.99783 9.81E-4
    901. 7267000. 0.001376 0.99774 1.06E-3
    879. 7089600. 0.001410 0.99765 1.14E-3
    858. 6920200. 0.001445 0.99756 1.23E-3
    838. 6758900. 0.001479 0.99747 1.33E-3
    818. 6597600. 0.001516 0.99738 1.43E-3
    798. 6436300. 0.001554 0.99728 1.54E-3
    779. 6283000. 0.001592 0.99718 1.66E-3
    760. 6129800. 0.001631 0.99709 1.79E-3
    741. 5976500. 0.001673 0.99700 1.93E-3
    725. 5847500. 0.001710 0.99691 2.07E-3
    707. 5702300. 0.001754 0.99682 2.23E-3
    690. 5565200. 0.001797 0.99674 2.39E-3
    674. 5436100. 0.001839 0.99666 2.55E-3
    658. 5307100. 0.001884 0.99658 2.74E-3
    642. 5178100. 0.001931 0.99654 2.96E-3
    627. 5057100. 0.001977 0.99652 3.13E-3
    612. 4936100. 0.002026 0.99650 3.29E-3
    597. 4815100. 0.002077 0.99645 3.46E-3
    583. 4702200. 0.002127 0.99641 3.63E-3
    569. 4589300. 0.002179 0.99636 3.82E-3
    555. 4476400. 0.002234 0.99632 4.05E-3
    542. 4371500. 0.002287 0.99631 4.27E-3
    529. 4266600. 0.002344 0.99634 4.51E-3
    516. 4161800. 0.002403 0.99639 4.72E-3
    504. 4065000. 0.002460 0.99643 4.90E-3
    492. 3968200. 0.002520 0.99648 5.09E-3
    480. 3871400. 0.002583 0.99654 5.30E-3
    469. 3782700. 0.002643 0.99661 5.50E-3
    458. 3694000. 0.002707 0.99672 5.72E-3
    447. 3605300. 0.002774 0.99692 6.01E-3
    436. 3516600. 0.002844 0.99721 6.07E-3
    426. 3435900. 0.002910 0.99744 6.12E-3
    415. 3347200. 0.002987 0.99773 6.18E-3
    406. 3274600. 0.003054 0.99808 6.23E-3
    396. 3193900. 0.003131 0.99863 5.97E-3
    386. 3113300. 0.003212 0.99887 5.30E-3
    377. 3040700. 0.003289 0.99882 4.75E-3
    368. 2968100. 0.003369 0.99867 4.25E-3
    359. 2895500. 0.003453 0.99840 3.79E-3
    351. 2831000. 0.003532 0.99808 3.41E-3
    342. 2758400. 0.003625 0.99765 3.02E-3
    334. 2693900. 0.003712 0.99720 2.71E-3
    326. 2629400. 0.003803 0.99669 2.42E-3
    318. 2564800. 0.003899 0.99611 2.16E-3
    311. 2508400. 0.003986 0.99554 1.94E-3
    303. 2443800. 0.004092 0.99473 1.72E-3
    296. 2387400. 0.004188 0.99400 1.77E-3
    289. 2330900. 0.004290 0.99329 1.87E-3
    282. 2274500. 0.004396 0.99261 1.98E-3
    275. 2218000. 0.004508 0.99195 2.09E-3
    269. 2169600. 0.004609 0.99137 2.20E-3
    262. 2113200. 0.004732 0.99066 2.33E-3
    256. 2064800. 0.004843 0.99002 2.45E-3
    250. 2016400. 0.004959  0.9894 2.59E-3
    244. 1968000. 0.005081  0.9887 2.73E-3
    238. 1919600. 0.005209  0.9879 2.89E-3
    232. 1871200. 0.005344  0.9872 3.06E-3
    227. 1830900. 0.005462  0.9865 3.21E-3
    221. 1782500. 0.005610  0.9857 3.41E-3
    216. 1742100. 0.005740  0.9849 3.59E-3
    211. 1701800. 0.005876  0.9842 3.75E-3
    206. 1661500. 0.006018  0.9834 3.90E-3
    201. 1621200. 0.006168  0.9825 4.06E-3
    196. 1580800. 0.006325  0.9817 4.23E-3
    190. 1532400. 0.006491  0.9808 4.17E-3
    187. 1508200. 0.006630  0.9799 4.09E-3
    182. 1467900. 0.006812  0.9785 3.98E-3
    178. 1435700. 0.006965  0.9773 4.08E-3
    174. 1403400. 0.007125  0.9761 4.20E-3
    170. 1371100. 0.007293  0.9748 4.32E-3
    166. 1338900. 0.007469  0.9734 4.44E-3
    162. 1306600. 0.007653  0.9719 4.57E-3
    158. 1274300. 0.007847  0.9703 4.71E-3
    154. 1242100. 0.008051  0.9686 4.86E-3
    150. 1209800. 0.008265  0.9667 5.01E-3
    147. 1185600. 0.008434  0.9653 5.14E-3
    143. 1153400. 0.008670  0.9632 5.20E-3
    140. 1129200. 0.008856  0.9615 5.12E-3
    136. 1096900. 0.009116  0.9589 5.02E-3
    133. 1072700. 0.009322  0.9567 4.93E-3
    130. 1048500. 0.009537  0.9543 4.85E-3
    127. 1024300. 0.009762  0.9517 4.77E-3
    124. 1000100. 0.009998  0.9487 4.69E-3
    121. 975930. 0.01025  0.9455 4.61E-3
    118. 951730. 0.01051  0.9419 4.52E-3
    115. 927530. 0.01078  0.9379 4.44E-3
    112. 903340. 0.01107  0.9333 4.36E-3
    110. 887210. 0.01127  0.9300 4.39E-3
    107. 863010. 0.01159  0.9243 4.43E-3
    104. 838810. 0.01192  0.9174 4.73E-3
    102. 822680. 0.01215  0.9124 5.59E-3
    100. 806550. 0.01240  0.9072 6.62E-3
   82.66 666690.   0.015   0.852  6.0E-2
   77.49 625000.   0.016   0.852   0.112
   72.93 588220.   0.017   0.853   0.140
   68.88 555550.   0.018   0.854   0.158
   65.26 526350.   0.019   0.857   0.172
   61.99 499980.   0.020   0.865   0.183
   59.04 476190.   0.021   0.875   0.190
   56.36 454570.   0.022   0.888   0.195
   53.91 434810.   0.023   0.900   0.199
   51.66 416660.   0.024   0.910   0.203
   49.59 399970.   0.025   0.915   0.205
   47.69 384640.   0.026   0.915   0.208
   45.92 370370.   0.027   0.907   0.153
   44.28 357140.   0.028   0.890   0.162
   42.75 344800.   0.029   0.863   0.177
   41.33 333350.   0.030   0.838   0.194
   40.00 322620.   0.031   0.808   0.212
   38.75 312540.   0.032   0.779   0.237
   37.57 303020.   0.033   0.753   0.260
   36.47 294150.   0.034   0.739   0.285
   35.42 285680.   0.035   0.731   0.312
   34.44 277780.   0.036   0.727   0.337
   33.51 270270.   0.037   0.725   0.360
   32.63 263180.   0.038   0.727   0.390
   31.79 256400.   0.039   0.729   0.416
   31.00 250030.   0.040   0.732   0.445
   30.24 243900.   0.041   0.735   0.468
   29.52 238090.   0.042   0.737   0.488
   28.83 232530.   0.043   0.739   0.511
   28.18 227290.   0.044   0.739   0.536
   27.55 222200.   0.045   0.739   0.560
   26.95 217370.   0.046   0.738   0.580
   26.38 212770.   0.047   0.733   0.603
   25.83 208330.   0.048   0.728   0.627
   25.30 204060.   0.049   0.727   0.645
   24.80 200020.   0.050   0.732   0.673
   24.31 196070.   0.051   0.742   0.696
   23.84 192280.   0.052   0.757   0.720
   23.39 188650.   0.053   0.780   0.743
   22.96 185180.   0.054   0.795   0.771
   22.54 181800.   0.055   0.807   0.798
   22.14 178570.   0.056   0.815   0.832
   21.75 175420.   0.057   0.821   0.821
   21.38 172440.   0.058   0.823   0.893
   21.01 169460.   0.059   0.832   0.925
   20.66 166630.   0.060   0.875   0.942
   20.33 163970.   0.061   0.926   0.949
   20.00 161310.   0.062   0.987   0.950
   19.68 158730.   0.063    1.02   0.948
   19.37 156230.   0.064    1.03   0.938
   19.07 153810.   0.065    1.04   0.913
   18.79 151550.   0.066    1.05   0.877
   18.51 149290.   0.067    1.06   0.851
   18.23 147030.   0.068    1.06   0.834
   17.97 144940.   0.069    1.07   0.820
   17.71 142840.   0.070    1.08   0.812
   17.46 140820.   0.071    1.09   0.805
   17.22 138890.   0.072    1.10   0.803
   16.98 136950.   0.073    1.10   0.802
   16.75 135100.   0.074    1.11   0.802
   16.53 133320.   0.075    1.12   0.802
   16.31 131550.   0.076    1.13   0.802
   16.10 129850.   0.077    1.14   0.802
   15.90 128240.   0.078    1.15   0.802
   15.69 126550.   0.079    1.15   0.802
   15.50 125020.   0.080    1.17   0.802
   15.31 123480.   0.081    1.17   0.802
   15.12 121950.   0.082    1.18   0.802
   14.94 120500.   0.083    I.19   0.802
   14.76 119050.   0.084    1.20   0.801
   14.59 117680.   0.085    1.21   0.800
   14.42 116300.   0.086    1.21   0.799
   14.25 114930.   0.087    1.22   0.798
   14.09 113640.   0.088    1.23   0.796
   13.93 112350.   0.089    1.24   0.793
   13.78 111140.   0.090    1.24   0.791
   13.62 109850.   0.091    1.25   0.788
   13.48 108720.   0.092    1.26   0.787
   13.33 107510.   0.093    1.26   0.784
   13.19 106380.   0.094    1.26   0.782
   13.05 105250.   0.095    1.27   0.778
   12.92 104210.   0.096    1.27   0.773
   12.78 103080.   0.097    1.27   0.769
   12.65 102030.   0.098    1.27   0.764
   12.52 100980.   0.099    1.27   0.758
   12.40 100010.   0.100    1.27   0.755
   11.81  95254.   0.105    1.26   0.730
   11.27  90898.   0.110    1.24   0.707
   10.78  86946.   0.115    1.22   0.682
   10.33  83317.   0.120    1.18   0.655
   9.919  80002.   0.125    1.11   0.638
   9.537  76921.   0.130    1.03   0.638
   9.184  74074.   0.135   0.953   0.675
   8.856  71428.   0.140   0.880   0.750
   8.551  68968.   0.145   0.820   0.843
   8.266  66669.   0.150   0.766   0.940
   7.999  64516.   0.155   0.720    1.03
   7.749  62500.   0.160   0.691    1.12
   7.514  60604.   0.165   0.681    1.22
   7.293  58822.   0.170   0.677    1.30
   7.085  57144.   0.175   0.675    1.38
   6.888  55555.   0.180   0.672    1.45
   6.702  54055.   0.185   0.672    1.51
   6.526  52635.   0.190   0.671    1.57
   6.358  51280.   0.195   0.672    1.63
   6.199  49998.   0.200   0.675    1.69
     6.2  50010.  0.2000    0.78    1.85
     6.0  48390.  0.2066    0.76    1.93
     5.8  46780.  0.2138    0.79    2.00
     5.6  45170.  0.2214    0.80    2.06
     5.4  43550.  0.2296    0.80    2.14
     5.2  41490.  0.2384    0.79    2.23
     5.0  40330.  0.2480    0.79    2.34
     4.9  39520.  0.2530    0.79    2.39
     4.8  38710.  0.2583    0.79    2.46
     4.7  37910.  0.2638    0.79    2.52
     4.6  37100.  0.2695    0.78    2.60
     4.5  36290.  0.2755    0.79    2.68
     4.4  35490.  0.2818    0.80    2.76
     4.3  34680.  0.2883    0.83    2.85
     4.2  33880.  0.2952    0.84    2.94
     4.1  33070.  0.3024    0.84    3.03
     4.0  32260.  0.3100    0.86    3.12
     3.9  31460.  0.3179    0.88    3.23
     3.8  30650.  0.3263    0.91    3.34
     3.7  29840.  0.3351    0.95    3.45
     3.6  29040.  0.3444    0.99    3.58
     3.5  28230.  0.3542    1.04    3.71
     3.4  27420.  0.3647    1.11    3.84
     3.3  26620.  0.3757    1.20    3.97
     3.2  25810.  0.3875    1.30    4.09
     3.1  25000.  0.4000    1.41    4.20
     3.0  24200.  0.4133    1.53    4.29
     2.9  23390.  0.4275    1.63    4.36
     2.7  21780.  0.4592    1.80    4.49
     2.6  20970.  0.4769    1.85    4.55
     2.5  20160.  0.4959    1.88    4.65
     2.4  19360.  0.5166    1.90    4.78
     2.3  18550.  0.5391    1.94    4.94
     2.2  17740.  0.5636    2.00    5.11
     2.1  16940.  0.5904    2.05    5.30
     2.0  16130.  0.6199    2.12    5.51
     1.9  15320.  0.6526    2.20    5.76
     1.8  14520.  0.6888    2.30    6.02
     1.7  13710.  0.7293    2.42    6.33
     1.6  12900.  0.7749    2.60    6.64
     1.5  12100.  0.8266    2.78    6.97
     1.4  11290.  0.8856    3.01    7.31
     1.3  10490.  0.9537    3.26    7.63
    1.25  10080.  0.9919    3.38    7.80
     1.2   9679.   1.033    3.51    7.94
    1.15   9275.   1.078    3.60    8.09
     1.1   8872.   1.127    3.67    8.26
    1.05   8469.   1.181    3.72    8.44
     1.0   8065.   1.240    3.71    8.67
    0.95   7662.   1.305    3.69    8.94
    0.90   7259.   1.378    3.62    9.36
    0.85   6856.   1.459    3.64    9.81
    0.80   6452.   1.550    3.63    10.3
    0.75   6049.   1.653    3.63    11.0
    0.70   5646.   1.771    3.67    11.7
    0.65   5243.   1.907    3.77    12.6
    0.60   4839.   2.066    3.87    13.5
    0.55   4436.   2.254    3.97    14.7
    0.50   4033.   2.480    4.20    16.1
    0.45   3629.   2.755    4.45    17.7
    0.40   3226.   3.100    4.74    19.8
    0.35   2823.   3.542    5.22    22.4
    0.30   2420.   4.133    5.85    25.9
    0.25   2016.   4.959    7.01    30.7
    0.20   1613.   6.199    8.66    37.5
    0.15   1210.   8.266    11.5    48.6
    0.10   806.5   12.40    18.5    69.4
