;UO 
;UO SiC-6H.ASC: Values of n(o), k(o) and n(e) for hexagonal silicon
;UO carbide from various references in HOCI (pg. 590). References
;UO are 1, 2, 3, 4, 5, 6, 7, 8. 
;UO 
;UO From HANDBOOK OF OPTICAL CONSTANTS IN SOLIDS edited by Edward D.
;UO Palik. Copyright (c) 1985 by Academic Press, Inc. Reproduced by
;UO permission of the publisher.
;UO -------------------------------------------------------------- 
;UO      eV     cm-1     um         n(o)    k(o)      n(e) 
;UO --------------------------------------------------------------
;N  6
;L  Energy[eV]  Wavelength[cm-1]  Wavelength[um]  n(o)  k(o)  n(e)  
    30.0  241970 0.04133   0.739   0.114 -0.0001
    29.1  234710 0.04261   0.718   0.115 -0.0001
    28.2  227450 0.04397   0.689   0.123 -0.0001
    27.6  222610 0.04492   0.670   0.132 -0.0001
    27.0  217770 0.04592   0.650   0.143 -0.0001
    26.4  212930 0.04696   0.630   0.156 -0.0001
    26.1  210510 0.04750   0.621   0.163 -0.0001
    25.5  205670 0.04862   0.601   0.177 -0.0001
    25.1  202440 0.04940   0.587   0.186 -0.0001
    24.5  197600 0.05061   0.562   0.200 -0.0001
    24.1  194380 0.05145   0.543   0.209 -0.0001
    23.5  189540 0.05276   0.505   0.225 -0.0001
    23.1  186310 0.05367   0.474   0.243 -0.0001
    22.5  181470 0.05510   0.424   0.285 -0.0001
    22.1  178250 0.05610   0.392   0.326 -0.0001
    21.5  173410 0.05767   0.360   0.402 -0.0001
    21.1  170180 0.05876   0.348   0.481 -0.0001
    20.5  165340 0.06048   0.347   0.532 -0.0001
    20.1  162120 0.06168   0.349   0.581 -0.0001
    19.5  157280 0.06358   0.359   0.653 -0.0001
    19.1  154050 0.06491   0.369   0.699 -0.0001
    18.5  149210 0.06702   0.387   0.766 -0.0001
    18.1  145990 0.06850   0.401   0.810 -0.0001
    17.5  141150 0.07085   0.424   0.873 -0.0001
    17.1  137920 0.07251   0.438   0.915 -0.0001
    16.5  133080 0.07514   0.461   0.983 -0.0001
    15.9  128240 0.07798   0.490    1.05 -0.0001
    15.5  125020 0.07999   0.512    1.10 -0.0001
    15.1  121790 0.08211   0.536    1.15 -0.0001
    14.5  116950 0.08551   0.574    1.23 -0.0001
    14.1  113720 0.08793   0.602    1.28 -0.0001
    13.5  108880 0.09184   0.649    1.36 -0.0001
    13.1  105660 0.09465   0.681    1.41 -0.0001
    12.5  100820 0.09919   0.729    1.51 -0.0001
    12.1   97590  0.1025   0.769    1.58 -0.0001
    11.5   92750  0.1078   0.844    1.71 -0.0001
    11.1   89530  0.1117   0.909    1.80 -0.0001
   10.95   88320  0.1132   0.937    1.84 -0.0001
   10.80   87110  0.1148   0.969    1.88 -0.0001
   10.65   85900  0.1164    1.00    1.92 -0.0001
   10.45   84280  0.1186    1.05    1.97 -0.0001
   10.25   82670  0.1210    1.11    2.03 -0.0001
   10.05   81060  0.1234    1.18    2.08 -0.0001
     9.9   79850  0.1252    1.23    2.13 -0.0001
     9.7   78240  0.1278    1.33    2.19 -0.0001
     9.5   76620  0.1305    1.46    2.21 -0.0001
     9.3   75010  0.1333    1.56    2.18 -0.0001
     9.0   72590  0.1378    1.60    2.15 -0.0001
     8.8   70980  0.1409    1.61    2.19 -0.0001
     8.6   69360  0.1442    1.63    2.26 -0.0001
     8.4   67750  0.1476    1.66    2.39 -0.0001
     8.2   66140  0.1512    1.77    2.57 -0.0001
     8.0   64520  0.1550    1.99    2.73 -0.0001
     7.8   62910  0.1590    2.27    2.82 -0.0001
     7.6   61300  0.1631    2.59    2.87 -0.0001
     7.5   60490  0.1653    2.78    2.85 -0.0001
    7.35   59280  0.1687    3.04    2.74 -0.0001
    7.15   57670  0.1734    3.33    2.55 -0.0001
     7.0   56460  0.1771    3.51    2.38 -0.0001
     6.8   54850  0.1823    3.69    2.17 -0.0001
     6.6   53230  0.1879    3.97    1.88 -0.0001
     6.4   51620  0.1937    4.05    1.42 -0.0001
     6.2   50010  0.2000    3.96    1.06 -0.0001
     6.0   48390  0.2066    3.83   0.803 -0.0001
     5.8   46780  0.2138    3.68   0.609 -0.0001
     5.6   45170  0.2214    3.54   0.464 -0.0001
     5.4   43550  0.2296    3.39   0.367 -0.0001
     5.2   41940  0.2384    3.27   0.304 -0.0001
     5.0   40330  0.2480    3.16   0.259 -0.0001
    4.75   38310  0.2610 -0.0001 6.58E-2 -0.0001
     4.7   37910  0.2638 -0.0001 5.85E-2 -0.0001
    4.65   37500  0.2666 -0.0001 5.16E-2 -0.0001
     4.6   37100  0.2695 -0.0001 4.57E-2 -0.0001
    4.55   36700  0.2725 -0.0001 4.13E-2 -0.0001
     4.5   36290  0.2755 -0.0001 3.73E-2 -0.0001
     4.5   36290  0.2755    2.96   0.203 -0.0001
    4.45   35890  0.2786 -0.0001 3.35E-2 -0.0001
     4.4   35490  0.2818 -0.0001 3.02E-2 -0.0001
    4.35   35080  0.2850 -0.0001 2.72E-2 -0.0001
     4.1   33070  0.3024 -0.0001 1.18E-2 -0.0001
     4.0   32260  0.3100 -0.0001 9.48E-3 -0.0001
     4.0   32260  0.3100    2.85   0.174 -0.0001
     4.0   32260  0.3100   2.948 -0.0001 -0.0001
     3.9   31460  0.3179   2.923 7.65E-3 -0.0001
     3.8   30650  0.3263   2.899 5.98E-3 -0.0001
     3.7   29840  0.3351   2.877 4.93E-3 -0.0001
     3.6   29040  0.3444   2.856 3.75E-3 -0.0001
     3.5   28230  0.3542   2.836 2.89E-3 -0.0001
     3.4   27420  0.3647   2.817 2.04E-3 -0.0001
     3.4   27420  0.3647    2.76   0.119 -0.0001
     3.3   26600  0.3757   2.799 1.38E-3 -0.0001
     3.2   25810  0.3875   2.781 8.39E-4 -0.0001
    3.12   25160  0.3974 -0.0001 3.00E-4 -0.0001
    3.10   25000  0.4000   2.765 1.91E-4 -0.0001
    3.08   24840  0.4025 -0.0001 1.19E-4 -0.0001
    3.06   24680  0.4052 -0.0001 8.06E-5 -0.0001
    3.04   24520  0.4078 -0.0001 6.49E-5 -0.0001
    3.02   24360  0.4105 -0.0001 5.39E-5 -0.0001
     3.0   24200  0.4133   2.750 4.44E-5 -0.0001
     3.0   24200  0.4133    2.69  9.0E-2 -0.0001
    2.98   24040  0.4161 -0.0001 3.74E-5 -0.0001
    2.96   23870  0.4189 -0.0001 3.33E-5 -0.0001
    2.94   23710  0.4217 -0.0001 2.82E-5 -0.0001
    2.92   23550  0.4246 -0.0001 2.53E-5 -0.0001
    2.90   23390  0.4275 -0.0001 2.31E-5 -0.0001
    2.85   22990  0.4350 -0.0001 1.87E-5 -0.0001
   2.845   22950  0.4358  2.7305 -0.0001  2.7824
     2.8   22580  0.4428 -0.0001 1.55E-5 -0.0001
     2.7   21780  0.4592 -0.0001 1.46E-5 -0.0001
   2.655   21410   0.467  2.7074 -0.0001  2.7553
     2.6   20970  0.4769 -0.0001 1.37E-5 -0.0001
     2.5   20160  0.4959   2.684 1.18E-5 -0.0001
   2.490   20080   0.498  2.6870 -0.0001  2.7331
   2.407   19420   0.515  2.6789 -0.0001  2.7236
   2.270   18310  0.5461  2.6631 -0.0001  2.7064
   2.183   17610   0.568  2.6557 -0.0001  2.6979
   2.145   17300  0.5781  2.6511 -0.0001  2.6933
   2.105   16980   0.589  2.6488 -0.0001  2.6911
   2.103   16960  0.5895  2.6475 -0.0001  2.6889
   2.013   16230   0.616  2.6411 -0.0001  2.6820
     2.0   16130  0.6199   2.634 -0.0001 -0.0001
   1.889   15240  0.6563  2.6296 -0.0001  2.6696
   1.794   14470   0.691  2.6243 -0.0001  2.6639
     1.5   12100  0.8266   2.598 -0.0001 -0.0001
     1.0    8065   1.248   2.573 -0.0001 -0.0001
  0.6199    5000       2   2.572 3.98E-4 -0.0001
  0.5579    4500   2.222   2.568 -0.0001 -0.0001
  0.4959    4000     2.5   2.562 5.17E-4 -0.0001
  0.4339    3500   2.857   2.554 -0.0001 -0.0001
  0.4133    3333     3.0 -0.0001 5.73E-4 -0.0001
  0.3720    3000   3.333   2.540 -0.0001 -0.0001
  0.3542    2857     3.5 -0.0001 6.13E-4 -0.0001
  0.3100    2500     4.0   2.516 6.37E-4 -0.0001
  0.2755    2222     4.5 -0.0001 7.16E-4 -0.0001
  0.2480    2000     5.0   2.467 8.75E-4 -0.0001
  0.2384    1923     5.2 -0.0001 9.93E-4 -0.0001
  0.2356    1900   5.263   2.450 -0.0001 -0.0001
  0.2296    1852     5.4 -0.0001 1.16E-3 -0.0001
  0.2232    1800   5.556   2.430 -0.0001 -0.0001
  0.2214    1786     5.6 -0.0001 1.56E-3 -0.0001
  0.2138    1724     5.8 -0.0001 2.68E-3 -0.0001
  0.2108    1700   5.882   2.404 -0.0001 -0.0001
  0.2066    1667     6.0 -0.0001 6.21E-3 -0.0001
  0.2033    1639     6.1 -0.0001 1.46E-2 -0.0001
  0.2000    1613     6.2 -0.0001 1.92E-2 -0.0001
  0.1984    1600   6.250   2.372 -0.0001 -0.0001
  0.1968    1587     6.3 -0.0001 9.53E-3 -0.0001
  0.1937    1563     6.4 -0.0001 1.02E-2 -0.0001
  0.1907    1538     6.5 -0.0001 2.59E-2 -0.0001
  0.1879    1515     6.6 -0.0001 2.10E-2 -0.0001
  0.1860    1500   6.667   2.328 -0.0001 -0.0001
  0.1851    1493     6.7 -0.0001 3.20E-3 -0.0001
  0.1823    1471     6.8 -0.0001 1.62E-3 -0.0001
  0.1797    1449     6.9 -0.0001 3.07E-3 -0.0001
  0.1771    1429     7.0 -0.0001 5.57E-3 -0.0001
  0.1746    1408     7.1 -0.0001 7.91E-3 -0.0001
  0.1736    1400   7.143   2.267 -0.0001 -0.0001
  0.1722    1389     7.2 -0.0001 8.59E-3 -0.0001
  0.1698    1370     7.3 -0.0001 8.71E-3 -0.0001
  0.1675    1351     7.4 -0.0001 1.06E-2 -0.0001
  0.1653    1333     7.5 -0.0001 1.43E-2 -0.0001
  0.1631    1316     7.6 -0.0001 1.69E-2 -0.0001
  0.1612    1300   7.692   2.178 -0.0001 -0.0001
  0.1610    1299     7.7 -0.0001 1.59E-2 -0.0001
  0.1590    1282     7.8 -0.0001 1.24E-2 -0.0001
  0.1569    1266     7.9 -0.0001 9.43E-3 -0.0001
  0.1550    1250     8.0 -0.0001 8.28E-3 -0.0001
  0.1512    1220     8.2 -0.0001 7.96E-3 -0.0001
  0.1488    1200   8.333   2.034 -0.0001 -0.0001
  0.1476    1190     8.4 -0.0001 8.96E-3 -0.0001
  0.1442    1163     8.6 -0.0001 1.03E-2 -0.0001
  0.1409    1136     8.8 -0.0001 1.11E-2 -0.0001
  0.1378    1111     9.0 -0.0001 1.15E-2 -0.0001
  0.1364    1100   9.091   1.768 -0.0001 -0.0001
  0.1348    1087     9.2 -0.0001 1.16E-2 -0.0001
  0.1339    1080   9.259   1.684 -0.0001 -0.0001
  0.1319    1064     9.4 -0.0001 1.14E-2 -0.0001
  0.1314    1060   9.434   1.581 -0.0001 -0.0001
  0.1292    1042     9.6 -0.0001 1.15E-2 -0.0001
  0.1289    1040   9.615   1.453 -0.0001 -0.0001
  0.1265    1020     9.8   1.286 1.40E-2 -0.0001
  0.1240    1000    10.0 -0.0001 2.55E-2 -0.0001
  0.1240    1000    10.0   1.051  3.4E-2 -0.0001
  0.1227     990   10.10   0.888  4.5E-2 -0.0001
  0.1215     980   10.20   0.663  6.7E-2 -0.0001
  0.1203     970   10.31   0.274    0.18 -0.0001
  0.1190     960   10.42  0.0872    0.63 -0.0001
  0.1178     950   10.53  0.0663    0.95 -0.0001
  0.1165     940   10.64  0.0593    1.21 -0.0001
  0.1153     930   10.75  0.0569    1.45 -0.0001
  0.1141     920   10.87  0.0569    1.69 -0.0001
  0.1128     910   10.99  0.0587    1.93 -0.0001
  0.1116     900   11.11  0.0621    2.18 -0.0001
  0.1103     890   11.24  0.0672    2.45 -0.0001
  0.1091     880   11.36  0.0746    2.75 -0.0001
  0.1079     870   11.49  0.0850    3.08 -0.0001
  0.1066     860   11.63  0.0999    3.47 -0.0001
  0.1054     850   11.76   0.122    3.93 -0.0001
  0.1041     840   11.90   0.156    4.51 -0.0001
  0.1029     830   12.05   0.215    5.27 -0.0001
  0.1023     825   12.12   0.262    5.77 -0.0001
  0.1017     820   12.20   0.332    6.38 -0.0001
  0.1010     815   12.27   0.443    7.18 -0.0001
  0.1004     810   12.35   0.639    8.27 -0.0001
 0.09981     805   12.42    1.05    9.93 -0.0001
 0.09919     800   12.50    2.22    12.8 -0.0001
 0.09857     795   12.58    8.74    18.4 -0.0001
 0.09795     790   12.66    17.7    6.03 -0.0001
 0.09733     785   12.74    12.7    1.76 -0.0001
 0.09671     780   12.82    10.3   0.868 -0.0001
 0.09609     775   12.90    8.91   0.531 -0.0001
 0.09547     770   12.99    8.00   0.364 -0.0001
 0.09485     765   13.07    7.35   0.268 -0.0001
 0.09423     760   13.16    6.86   0.208 -0.0001
 0.09299     750   13.33    6.16   0.136 -0.0001
 0.09175     740   13.51    5.68  9.7E-2 -0.0001
 0.09051     730   13.70    5.32  7.4E-2 -0.0001
 0.08927     720   13.89    5.05  5.8E-2 -0.0001
 0.08803     710   14.08    4.83  4.7E-2 -0.0001
 0.08679     700   14.29    4.65  3.9E-2 -0.0001
 0.08059     650   15.38    4.09  1.8E-2 -0.0001
 0.07439     600   16.67    3.80  1.1E-2 -0.0001
 0.06819     550   18.18    3.61 -0.0001 -0.0001
 0.06199     500   20.00    3.49 -0.0001 -0.0001
 0.05579     450   22.22    3.40 -0.0001 -0.0001
 0.04959     400   25.00    3.34 -0.0001 -0.0001
