;UO 
;UO SiO.ASC: Values of n and k for polycrystalline silicon
;UO monoxide from various references in HOCI (pg. 767). 
;UO References are 1, 2.
;UO 
;UO Copyright (c) 1995 by the Optical Society of America.  Data
;UO from HANDBOOK OF OPTICAL CONSTANTS IN SOLIDS edited by Edward D.
;UO Palik. Copyright (c) 1985 by Academic Press, Inc. Reproduced by
;UO permission of the publisher.
;UO -------------------------------------------------------  
;UO     eV    cm-1     um          n        k 
;UO -------------------------------------------------------
;N  5
;L  Energy[eV]  Wavelength[cm-1]  Wavelength[um]  n  k  
      25  201640 0.04959  0.8690  0.2717
      24  193570 0.05166  0.8444  0.3060
      23  185510 0.05391  0.8371  0.3505
    22.5  181470 0.05510  0.8391  0.3761
      22  177440 0.05636  0.8454  0.3987
    21.5  173410 0.05767  0.8519  0.4222
      21  169380 0.05904  0.8610  0.4456
    20.5  165340 0.06048  0.8721  0.4688
      20  161310 0.06199  0.8853  0.4919
    19.5  157280 0.06358  0.9007  0.5140
      19  153240 0.06526  0.9178  0.5362
    18.5  149210 0.06702  0.9376  0.5578
      18  145180 0.06888  0.9596  0.5771
    17.5  141150 0.07085  0.9825  0.5961
      17  137110 0.07293   1.008  0.6147
    16.5  133080 0.07514   1.036  0.6309
      16  129050 0.07749   1.066  0.6453
    15.5  125020 0.07999   1.098  0.6566
      15  120980 0.08266   1.132  0.6651
    14.5  116950 0.08551   1.166  0.6692
      14  112920 0.08856   1.199  0.6698
    13.5  108880 0.09184   1.231  0.6666
      13  104850 0.09537   1.259  0.6602
    12.5  100820 0.09919   1.283  0.6523
      12   96790  0.1033   1.307  0.6464
    11.5   92750  0.1078   1.311  0.6293
      11   88720  0.1127   1.320  0.6529
    10.5   84690  0.1181   1.345  0.6701
      10   80655  0.1240   1.378  0.6843
     9.5   76620  0.1305   1.412  0.6920
       9   72590  0.1378   1.445  0.7002
     8.5   68560  0.1459   1.482  0.7153
       8   64520  0.1550   1.530  0.7333
     7.5   60490  0.1653   1.593  0.7473
       7   56460  0.1771   1.667  0.7479
     6.5   52430  0.1907   1.746  0.7348
       6   48390  0.2066   1.829  0.7084
    5.75   46380  0.2156   1.871  0.6890
     5.5   44360  0.2254   1.914  0.6663
    5.25   42340  0.2362   1.957  0.6383
       5   40330  0.2480   2.001  0.6052
     4.8   38710  0.2583   2.034  0.5723
     4.6   37100  0.2695   2.066  0.5364
     4.4   35490  0.2818   2.094  0.4948
     4.2   33880  0.2952   2.119  0.4499
       4   32260  0.3100   2.141  0.4006
     3.8   30650  0.3263   2.157  0.3453
     3.6   29040  0.3444   2.162  0.2872
     3.4   27420  0.3647   2.160  0.2287
     3.2   25810  0.3875   2.144  0.1706
       3   24200  0.4133   2.116  0.1211
     2.8   22580  0.4428   2.085 0.08374
     2.6   20970  0.4769   2.053 0.05544
     2.4   19360  0.5166   2.021 0.03533
     2.2   17740  0.5636   1.994 0.02153
       2   16130  0.6199   1.969 0.01175
     1.8   14520  0.6888   1.948 0.00523
     1.6   12900  0.7749   1.929 0.00151
     1.4   11290  0.8856   1.913 -0.0001
   1.240   10000   1.000    1.87 -0.0001
  0.6199    5000   2.000    1.84 -0.0001
  0.4133    3333   3.000    1.82 -0.0001
  0.3100    2500   4.000    1.80 -0.0001
  0.2480    2000   5.000    1.75 -0.0001
  0.2066    1667   6.000    1.70 -0.0001
  0.1771    1492   7.000    1.60 -0.0001
  0.1653    1333   7.500    1.42 -0.0001
  0.1550    1250   8.000    1.15 -0.0001
  0.1459    1176   8.500    0.90    0.18
  0.1378    1111   9.000    0.91    0.75
  0.1305    1053   9.500    1.20    1.20
  0.1240    1000   10.00    2.00    1.38
  0.1181   952.4   10.50    2.85    0.90
  0.1153   930.2   10.75    2.86    0.58
  0.1127   909.1   11.00    2.82    0.40
  0.1078   869.6   11.50    2.50    0.20
  0.1033   833.3   12.00    2.13    0.14
 0.09537   769.2   13.00    2.04    0.20
 0.08856   714.3   14.00    2.01    0.30
