;UO 
;UO SiO2-t.ASC: Values of n and k for trigonal quartz from various
;UO references in HOCI (pg. 724). References are 1, 2, 3, 6, 7, 8, 9.
;UO 
;UO From HANDBOOK OF OPTICAL CONSTANTS IN SOLIDS edited by Edward D.
;UO Palik. Copyright (c) 1985 by Academic Press, Inc. Reproduced by
;UO permission of the publisher.
;UO ----------------------------------------------------------------
;UO  eV         cm-1     um        n(o)     k(o)      n(e)      k(e) 
;UO ----------------------------------------------------------------
;N  7
;L  Energy[eV]  Wavelength[cm-1]  Wavelength[um]  n(o)  k(o)  n(e)  k(e)  
      26  209700 0.04769  0.6285  0.3243 -0.0001 -0.0001
    25.5  205670 0.04862  0.6432  0.3609 -0.0001 -0.0001
      25  201640 0.04959  0.6517  0.3907 -0.0001 -0.0001
    24.5  197600 0.05061  0.6591  0.4231 -0.0001 -0.0001
      24  193570 0.05166  0.6723  0.4540 -0.0001 -0.0001
    23.5  189540 0.05276  0.6862  0.4822 -0.0001 -0.0001
      23  185510 0.05391  0.6998  0.5097 -0.0001 -0.0001
    22.5  181470 0.05510  0.7138  0.5387 -0.0001 -0.0001
      22  177440 0.05636  0.7304  0.5667 -0.0001 -0.0001
    21.5  173410 0.05767  0.7470  0.5959 -0.0001 -0.0001
      21  169380 0.05904  0.7664  0.6272 -0.0001 -0.0001
    20.5  165340 0.06048  0.7900  0.6559 -0.0001 -0.0001
      20  161310 0.06199  0.8131  0.6844 -0.0001 -0.0001
    19.5  157280 0.06358  0.8371  0.7154 -0.0001 -0.0001
      19  153240 0.06526  0.8642  0.7488 -0.0001 -0.0001
    18.5  149210 0.06702  0.8949  0.7847 -0.0001 -0.0001
      18  145180 0.06888  0.9289  0.8273 -0.0001 -0.0001
   17.75  143160 0.06985  0.9499  0.8619 -0.0001 -0.0001
    17.5  141150 0.07085  0.9894  0.8987 -0.0001 -0.0001
    17.4  140340 0.07125   1.013  0.9108 -0.0001 -0.0001
   17.25  139130 0.07187   1.052  0.9236 -0.0001 -0.0001
      17  137110 0.07293   1.118  0.9153 -0.0001 -0.0001
   16.75  135100 0.07402   1.169  0.8917 -0.0001 -0.0001
    16.5  133080 0.07514   1.205  0.8599 -0.0001 -0.0001
   16.25  131060 0.07629   1.224  0.8223 -0.0001 -0.0001
      16  129050 0.07749   1.221  0.7896 -0.0001 -0.0001
   15.75  127030 0.07872   1.210  0.7848 -0.0001 -0.0001
    15.5  125020 0.07999   1.202  0.7841 -0.0001 -0.0001
   15.25  123000 0.08130   1.191  0.7968 -0.0001 -0.0001
      15  120980 0.08266   1.184  0.8265 -0.0001 -0.0001
    14.8  119370 0.08377   1.187  0.8694 -0.0001 -0.0001
    14.6  117760 0.08492   1.217  0.9290 -0.0001 -0.0001
    14.4  116140 0.08610   1.285  0.9724 -0.0001 -0.0001
    14.3  115340 0.08670   1.335  0.9829 -0.0001 -0.0001
    14.2  114530 0.08731   1.386  0.9709 -0.0001 -0.0001
      14  112920 0.08856   1.457  0.9187 -0.0001 -0.0001
    13.8  111300 0.08984   1.484  0.8462 -0.0001 -0.0001
    13.6  109690 0.09116   1.469  0.7910 -0.0001 -0.0001
    13.4  108080 0.09252   1.447  0.7761 -0.0001 -0.0001
    13.2  106460 0.09392   1.430  0.7715 -0.0001 -0.0001
      13  104850 0.09537   1.410  0.7753 -0.0001 -0.0001
    12.8  103240 0.09686   1.394  0.8017 -0.0001 -0.0001
    12.6  101620 0.09839   1.390  0.8406 -0.0001 -0.0001
    12.4  100010 0.09998   1.400  0.8908 -0.0001 -0.0001
    12.2   98399  0.1016   1.435  0.9573 -0.0001 -0.0001
      12   96786  0.1033   1.504   1.015 -0.0001 -0.0001
    11.9   95979  0.1042   1.551   1.035 -0.0001 -0.0001
    11.8   95173  0.1051   1.602   1.048 -0.0001 -0.0001
    11.7   94366  0.1060   1.661   1.056 -0.0001 -0.0001
    11.6   93560  0.1069   1.722   1.046 -0.0001 -0.0001
    11.5   92753  0.1078   1.782   1.027 -0.0001 -0.0001
    11.4   91947  0.1088   1.839  0.9939 -0.0001 -0.0001
    11.3   91140  0.1097   1.892  0.9452 -0.0001 -0.0001
    11.2   90334  0.1107   1.924  0.8730 -0.0001 -0.0001
    11.1   89527  0.1117   1.925  0.7958 -0.0001 -0.0001
      11   88721  0.1127   1.891  0.7210 -0.0001 -0.0001
    10.9   87914  0.1137   1.805  0.6597 -0.0001 -0.0001
   10.85   87511  0.1143   1.738  0.6418 -0.0001 -0.0001
   10.83   87349  0.1145   1.688  0.6356 -0.0001 -0.0001
    10.8   87107  0.1148   1.626  0.6732 -0.0001 -0.0001
   10.75   86704  0.1153   1.569  0.7594 -0.0001 -0.0001
    10.7   86301  0.1159   1.528  0.8463 -0.0001 -0.0001
   10.65   85898  0.1164   1.506  0.9666 -0.0001 -0.0001
    10.6   85494  0.1170   1.521   1.114 -0.0001 -0.0001
   10.55   85091  0.1175   1.607   1.289 -0.0001 -0.0001
    10.5   84688  0.1181   1.769   1.400 -0.0001 -0.0001
   10.45   84284  0.1186   1.959   1.454 -0.0001 -0.0001
    10.4   83881  0.1192   2.159   1.452 -0.0001 -0.0001
   10.37   83639  0.1196   2.289   1.423 -0.0001 -0.0001
   10.35   83478  0.1198   2.373   1.378 -0.0001 -0.0001
    10.3   83075  0.1204   2.515   1.229 -0.0001 -0.0001
   10.25   82671  0.1210   2.590   1.072 -0.0001 -0.0001
    10.2   82268  0.1215   2.619  0.9326 -0.0001 -0.0001
    10.1   81462  0.1227   2.621  0.7123 -0.0001 -0.0001
      10   80655  0.1240   2.581  0.5441 -0.0001 -0.0001
     9.9   79848  0.1252   2.529  0.4161 -0.0001 -0.0001
     9.8   79042  0.1265   2.464  0.3148 -0.0001 -0.0001
     9.7   78235  0.1278   2.397  0.2402 -0.0001 -0.0001
     9.6   77429  0.1291   2.335    0.17 -0.0001 -0.0001
     9.5   76622  0.1305   2.275    0.12 -0.0001 -0.0001
     9.4   75816  0.1319   2.222   0.082 -0.0001 -0.0001
     9.3   75009  0.1333   2.174   0.056 -0.0001 -0.0001
     9.2   74203  0.1348   2.133   0.036 -0.0001 -0.0001
     9.1   73396  0.1362   2.095   0.023 -0.0001 -0.0001
       9   72590  0.1378   2.060   0.013 -0.0001 -0.0001
     8.9   71783  0.1393   2.028  7.0E-3 -0.0001 -0.0001
     8.8   70976  0.1409   1.999  3.1E-3 -0.0001 -0.0001
     8.7   70170  0.1425   1.971  1.0E-3 -0.0001 -0.0001
     8.6   69363  0.1442   1.946  2.3E-4 -0.0001 -0.0001
     8.5   68557  0.1459   1.922  3.5E-5 -0.0001 -0.0001
     8.4   67750  0.1476   1.899  2.7E-6 -0.0001 -0.0001
     8.3   66944  0.1494   1.877 -0.0001 -0.0001 -0.0001
     8.2   66137  0.1512   1.856 -0.0001 -0.0001 -0.0001
     8.1   65331  0.1531   1.838 -0.0001 -0.0001 -0.0001
       8   64524  0.1550   1.820 -0.0001 -0.0001 -0.0001
     7.8   62911  0.1590   1.789 -0.0001 -0.0001 -0.0001
     7.6   61298  0.1631   1.761 -0.0001 -0.0001 -0.0001
     7.4   59685  0.1675   1.737 -0.0001 -0.0001 -0.0001
     7.2   58072  0.1722   1.716 -0.0001 -0.0001 -0.0001
       7   56459  0.1771   1.698 -0.0001 -0.0001 -0.0001
    6.75   54442  0.1837   1.679 -0.0001 -0.0001 -0.0001
     6.7   54039  0.1851  1.6775 -0.0001 1.68988 -0.0001
 6.68484 53917.9 0.185467 1.67578 -0.0001 1.68997 -0.0001
 6.40458 51657.4 0.193583 1.65999 -0.0001 1.67343 -0.0001
   6.262   50510  0.1980 1.65087 -0.0001 1.66394 -0.0001
  6.1972   49985 0.20006 1.64927 -0.0001 1.66227 -0.0001
  6.1210   49371 0.20255 1.64557 -0.0001 1.65842 -0.0001
 6.06422 48912.2 0.204448 1.64288 -0.0001 1.65562 -0.0001
  5.8740   47378 0.21107 1.63432 -0.0001 1.64671 -0.0001
 5.78168 46633.3 0.214439 1.63039 -0.0001 1.64262 -0.0001
 5.64935 45566.0 0.219462 1.62497 -0.0001 1.63698 -0.0001
 5.47374 44149.5 0.226503 1.61818 -0.0001 1.62992 -0.0001
   5.367   43290  0.2310 1.61395 -0.0001 1.62555 -0.0001
 5.36049 43236.1 0.231288 1.61401 -0.0001 1.62559 -0.0001
 5.10642 41186.8 0.242796 1.60525 -0.0001 1.61650 -0.0001
 4.95275 39947.4 0.250329 1.60032 -0.0001 1.61139 -0.0001
 4.81849 38864.5 0.257304 1.59622 -0.0001 1.60714 -0.0001
 4.71136 38000.4 0.263155 1.59309 -0.0001 1.60389 -0.0001
 4.51061 36381.2 0.274867 1.58752 -0.0001 1.59813 -0.0001
 4.25531 34322.0 0.291358 1.58098 -0.0001 1.59136 -0.0001
 4.08625 32958.5 0.303412 1.57955 -0.0001 1.58720 -0.0001
 3.97023 32022.6 0.312279 1.57433 -0.0001 1.584485 -0.0001
 3.81186 30745.3 0.325253 1.570915 -0.0001 1.58095 -0.0001
   3.647   29410  0.3400 1.56747 -0.0001 1.57737 -0.0001
 3.64261 29380.2 0.340365 1.56747 -0.0001 1.577385 -0.0001
  3.4566   27880 0.35868 1.563915 -0.0001 1.573705 -0.0001
   3.147   25380  0.3940 1.55846 -0.0001 1.56805 -0.0001
 3.12416 25198.6 0.396848 1.55813 -0.0001 1.56772 -0.0001
 3.06388 24712.3 0.404656 1.557156 -0.0001 1.56671 -0.0001
 3.02266 24379.9 0.410174 1.556502 -0.0001 1.566031 -0.0001
   2.857   23040  0.4340 1.55396 -0.0001 1.56339 -0.0001
 2.85641 23093.0 0.434047 1.553963 -0.0001 1.563405 -0.0001
 2.84470 22944.5 0.435834 1.553790 -0.0001 1.563225 -0.0001
 2.65023 21376.0 0.467815 1.551027 -0.0001 1.560368 -0.0001
 2.58300 20833.7 0.479991 1.550118 -0.0001 1.559428 -0.0001
 2.55037 20570.5 0.486133 1.549683 -0.0001 1.558979 -0.0001
   2.441   19685  0.5080 1.54822 -0.0001 1.55746 -0.0001
 2.43779 19662.5 0.508582 1.548229 -0.0001 1.557475 -0.0001
 2.39180 19291.5 0.518362 1.547651 -0.0001 1.556877 -0.0001
 2.32241 18731.9 0.53385 1.546799 -0.0001 1.555996 -0.0001
 2.27043 18312.6 0.546072 1.546174 -0.0001 1.555350 -0.0001
 2.14107 17269.2 0.579066 1.544667 -0.0001 1.553791 -0.0001
 2.11010 17019.5 0.587563 1.544316 -0.0001 1.553428 -0.0001
  2.1039   16969 0.58929 1.544246 -0.0001 1.553355 -0.0001
  2.1039   16969  0.5893 1.54424 -0.0001 1.55335 -0.0001
  1.9748   15928 0.62782 1.542819 -0.0001 1.551880 -0.0001
 1.92564 15531.6 0.643847 1.542288 -0.0001 1.551332 -0.0001
 1.88917 15237.4 0.656278 1.541899 -0.0001 1.550929 -0.0001
 1.85653 14974.2 0.667815 1.541553 -0.0001 1.550573 -0.0001
 1.84831 14907.9 0.670786 1.541466 -0.0001 1.550483 -0.0001
 1.75482 14153.9 0.706520 1.540488 -0.0001 1.549472 -0.0001
 1.70273 13733.7 0.728135 1.539948 -0.0001 1.548913 -0.0001
 1.61752 13046.4 0.766494 1.539071 -0.0001 1.548005 -0.0001
   1.614   13020  0.7680 1.53903 -0.0001 1.54794 -0.0001
 1.55998 12582.4 0.794763 1.538478 -0.0001 1.547392 -0.0001
   1.489   12010  0.8325 1.53773 -0.0001 1.54661 -0.0001
  1.4678   11839 0.84467 1.537525 -0.0001 1.54640 -0.0001
   1.251   10090  0.9914 1.53514 -0.0001 1.54392 -0.0001
 1.23982 10000.0 1.00000 1.53503 -0.0001 1.54381 -0.0001
 1.22263 9861.35 1.01406 1.53483 -0.0001 1.54360 -0.0001
 1.14477 9233.35 1.08303 1.53387 -0.0001 1.54260 -0.0001
  1.0695  8626.6  1.1592 1.53283 -0.0001 1.54152 -0.0001
 1.03318 8333.33 1.20000 1.53232 -0.0001 1.54098 -0.0001
 0.953706 7692.31 1.30000 1.53102 -0.0001 1.53962 -0.0001
 0.94860  7651.1  1.3070 1.53090 -0.0001 1.53951 -0.0001
 0.88825  7164.4  1.3958 1.52977 -0.0001 1.53832 -0.0001
 0.885584 7142.86 1.40000 1.52972 -0.0001 1.53826 -0.0001
 0.83817  6760.4  1.4792 1.52865 -0.0001 1.53716 -0.0001
 0.810545 6537.61 1.52961 1.52800 -0.0001 1.53646 -0.0001
 0.80435  6487.6  1.5414 1.52781 -0.0001 1.53630 -0.0001
 0.774886 6250.00 1.60000 1.52703 -0.0001 1.53545 -0.0001
 0.73733  5947.1  1.6815 1.52583 -0.0001 1.53422 -0.0001
 0.70388  5677.3  1.7614 1.52468 -0.0001 1.53301 -0.0001
 0.688788 5555.55 1.80000 1.52413 -0.0001 1.53242 -0.0001
 0.63721  5139.5  1.9457 1.52184 -0.0001 1.53004 -0.0001
 0.60388  4870.7  2.0531 1.52005 -0.0001 1.52823 -0.0001
 0.602362 4858.47 2.05820 1.51998 -0.0001 1.52814 -0.0001
  0.5391    4348   2.300 1.51561 -0.0001 -0.0001 -0.0001
 0.495927 4000.00 2.50000 1.51156 -0.0001  1.5195 -0.0001
  0.4769    3846   2.600 1.50986 -0.0001 -0.0001 -0.0001
  0.4133    3333   3.000 1.49953 -0.0001   1.507 -0.0001
  0.3542    2857   3.500 1.48451 -0.0001   1.492 -0.0001
  0.3100    2500   4.000 1.46617 -0.0001   1.473 -0.0001
  0.2952    2381   4.200   1.457 -0.0001   1.465 -0.0001
  0.2818    2273   4.400   1.448 -0.0001   1.455 -0.0001
  0.2695    2174   4.600   1.437 -0.0001   1.444 -0.0001
  0.2583    2083   4.800   1.425 -0.0001   1.432 -0.0001
  0.2480    2000   5.000   1.412 -0.0001   1.419 -0.0001
  0.2384    1923   5.200   1.398 -0.0001   1.404 -0.0001
  0.2296    1852   5.400   1.382 -0.0001   1.388 -0.0001
  0.2214    1786   5.600   1.364 -0.0001   1.369 -0.0001
  0.2138    1724   5.800   1.343 -0.0001   1.348 -0.0001
  0.2066    1667   6.000   1.320 2.27E-3   1.325 2.672E-3
  0.2033    1639   6.100   1.307 2.545E-3   1.311 3.000E-3
  0.2000    1613   6.200   1.294 2.862E-3   1.297 3.378E-3
  0.1968    1587   6.300   1.279 3.229E-3   1.282 3.816E-3
  0.1937    1563   6.400   1.263 3.657E-3   1.266 4.328E-3
  0.1907    1538   6.500   1.245 4.160E-3   1.248 4.928E-3
  0.1879    1515   6.600   1.226 4.755E-3   1.229 5.639E-3
  0.1851    1493   6.700   1.206 5.467E-3   1.207 6.486E-3
  0.1823    1471   6.800   1.183 6.328E-3   1.184 7.507E-3
  0.1797    1449   6.900   1.158 7.380E-3   1.159 8.747E-3
  0.1771    1429   7.000   1.130 8.683E-3   1.130 1.027E-2
  0.1759    1418   7.050   1.115 9.455E-3   1.115 1.117E-2
  0.1746    1408   7.100   1.099 1.032E-2   1.099 1.217E-2
  0.1734    1399   7.150   1.083 1.131E-2   1.081 1.330E-2
  0.1722    1389   7.200   1.065 1.243E-2   1.063 1.457E-2
  0.1710    1379   7.250   1.046 1.370E-2   1.043 1.601E-2
  0.1698    1370   7.300   1.025 1.517E-2   1.023 1.764E-2
  0.1687    1361   7.350   1.004 1.687E-2   1.000 1.951E-2
  0.1675    1351   7.400  0.9801 1.885E-2  0.9764 2.166E-2
  0.1664    1342   7.450  0.9549 2.117E-2  0.9505 2.413E-2
  0.1653    1333   7.500  0.9277 2.391E-2  0.9226 2.700E-2
  0.1642    1325   7.550  0.8982 2.717E-2  0.8923 3.035E-2
  0.1631    1316   7.600  0.8660 3.108E-2  0.8592 3.430E-2
  0.1621    1307   7.650  0.8308 3.583E-2  0.8230 3.899E-2
  0.1610    1299   7.700  0.7921 4.163E-2  0.7829 4.462E-2
  0.1600    1290   7.750  0.7492 4.883E-2  0.7338 5.150E-2
  0.1590    1282   7.800  0.7013 5.788E-2  0.6881 6.007E-2
  0.1579    1274   7.850  0.6472 6.949E-2  0.6308 7.112E-2
  0.1569    1266   7.900  0.5953 8.487E-2  0.5642 8.609E-2
  0.1560    1258   7.950  0.5132  0.1063  0.4850  0.1081
  0.1550    1250   8.000  0.4276  0.1391  0.3885  0.1450
  0.1540    1242   8.050  0.3274  0.1962  0.2767  0.2179
  0.1531    1235   8.100  0.2318  0.2958  0.1890  0.3399
  0.1521    1227   8.150  0.1728  0.4190  0.1454  0.4685
  0.1512    1220   8.200  0.1410  0.5380  0.1230  0.5857
  0.1503    1212   8.250  0.1216  0.6504  0.1094  0.6947
  0.1494    1205   8.300  0.1088  0.7599  0.1003  0.7992
  0.1485    1198   8.350  0.1005  0.8699 0.09390  0.9019
  0.1476    1190   8.400  0.0965  0.9842 0.08950   1.005
  0.1467    1183   8.450 0.09826   1.109 0.08671   1.110
  0.1459    1176   8.500  0.1136   1.255 0.08538   1.218
  0.1450    1170   8.550  0.1913   1.459 0.08549   1.331
  0.1442    1163   8.600  0.6590   1.421 0.08711   1.450
  0.1433    1156   8.650  0.2427   1.178 0.09042   1.578
  0.1425    1149   8.700  0.1309   1.408 0.09570   1.717
  0.1417    1143   8.750  0.1115   1.591  0.1034   1.868
  0.1409    1136   8.800  0.1102   1.763  0.1143   2.038
  0.1401    1130   8.850  0.1167   1.941  0.1296   2.230
  0.1393    1124   8.900  0.1290   2.134  0.1513   2.453
  0.1385    1117   8.950  0.1478   2.352  0.1828   2.719
  0.1378    1111   9.000  0.1757   2.606  0.2308   3.047
  0.1370    1105   9.050  0.2178   2.911  0.3092   3.470
  0.1362    1099   9.100  0.2846   3.296  0.4518   4.050
  0.1355    1093   9.150  0.4006   3.808  0.7618   4.924
  0.1348    1087   9.200  0.6330   4.546   1.689   6.406
  0.1340    1081   9.250   1.230   5.733   5.862   7.634
  0.1333    1075   9.300   3.583   7.566   7.460   2.497
  0.1326    1070   9.350   7.929   4.184   5.808  0.9409
  0.1319    1064   9.400   6.336   1.331   4.868  0.5056
  0.1312    1058   9.450   5.180  0.6460   4.291  0.3239
  0.1305    1053   9.500   4.497  0.3920   3.899  0.2293
  0.1298    1047   9.550   4.048  0.2685   3.614  0.1732
  0.1292    1042   9.600   3.727  0.1982   3.395  0.1367
  0.1285    1036   9.650   3.485  0.1539   3.221  0.1116
  0.1278    1031   9.700   3.295  0.1240   3.079 9.335E-2
  0.1272    1026   9.750   3.142  0.1027   2.961 7.968E-2
  0.1265    1020   9.800   3.014 8.691E-2   2.860 6.913E-2
  0.1259    1015   9.850   2.907 7.485E-2   2.773 6.078E-3
  0.1252    1010   9.900   2.814 6.540E-2   2.697 5.405E-2
  0.1246    1005   9.950   2.734 5.785E-2   2.631 4.854E-2
  0.1240    1000   10.00   2.663 5.170E-2   2.571 4.396E-2
  0.1234   995.0   10.05   2.600 4.662E-2   2.518 4.011E-2
  0.1228   990.1   10.10   2.544 4.238E-2   2.469 3.684E-2
  0.1221   985.2   10.15   2.493 3.879E-2   2.425 3.403E-2
  0.1216   980.4   10.20   2.447 3.573E-2   2.385 3.161E-2
  0.1210   975.6   10.25   2.405 3.310E-2   2.348 2.950E-2
  0.1204   970.9   10.30   2.366 3.083E-2   2.314 2.766E-2
  0.1198   966.2   10.35   2.330 2.885E-2   2.282 2.603E-2
  0.1192   961.5   10.40   2.297 2.712E-2   2.253 2.460E-2
  0.1186   956.9   10.45   2.266 2.560E-2   2.225 2.333E-2
  0.1181   952.4   10.50   2.237 2.427E-2   2.199 2.220E-2
  0.1175   947.9   10.55   2.210 2.309E-2   2.175 2.120E-2
  0.1170   943.4   10.60   2.184 2.205E-2   2.151 2.030E-2
  0.1164   939.0   10.65   2.159 2.114E-2   2.129 1.949E-2
  0.1159   934.6   10.70   2.136 2.033E-2   2.108 1.878E-2
  0.1153   930.2   10.75   2.113 1.962E-2   2.088 1.814E-2
  0.1148   925.9   10.80   2.092 1.901E-2   2.069 1.757E-2
  0.1143   921.7   10.85   2.071 1.847E-2   2.051 1.707E-2
  0.1137   917.4   10.90   2.051 1.802E-2   2.033 1.662E-2
  0.1132   913.2   10.95   2.032 1.764E-2   2.016 1.623E-2
  0.1127   909.1   11.00   2.013 1.734E-2   1.999 1.590E-2
  0.1122   905.0   11.05   1.995 1.710E-2   1.983 1.561E-2
  0.1117   900.9   11.10   1.977 1.694E-2   1.967 1.538E-2
  0.1112   896.9   11.15   1.959 1.685E-2   1.952 1.519E-2
  0.1107   892.9   11.20   1.941 1.683E-2   1.937 1.505E-2
  0.1102   888.9   11.25   1.924 1.690E-2   1.922 1.496E-2
  0.1097   885.0   11.30   1.906 1.706E-2   1.907 1.492E-2
  0.1092   881.1   11.35   1.888 1.730E-2   1.892 1.493E-2
  0.1088   877.2   11.40   1.870 1.766E-2   1.878 1.499E-2
  0.1083   873.4   11.45   1.852 1.814E-2   1.863 1.511E-2
  0.1078   869.6   11.50   1.833 1.877E-2   1.849 1.530E-2
  0.1073   865.8   11.55   1.814 1.956E-2   1.834 1.556E-2
  0.1069   862.1   11.60   1.794 2.055E-2   1.819 1.590E-2
  0.1064   858.4   11.65   1.773 2.180E-2   1.804 1.632E-2
  0.1060   854.7   11.70   1.751 2.335E-2   1.789 1.685E-2
  0.1055   851.1   11.75   1.727 2.530E-2   1.773 1.751E-2
  0.1051   847.5   11.80   1.701 2.775E-2   1.756 1.830E-2
  0.1046   843.9   11.85   1.672 3.088E-2   1.739 1.927E-2
  0.1042   840.3   11.90   1.641 3.491E-2   1.721 2.044E-2
  0.1038   836.8   11.95   1.605 4.021E-2   1.702 2.187E-2
  0.1033   833.3   12.00   1.564 4.732E-2   1.682 2.363E-2
  0.1029   829.9   12.05   1.516 5.715E-2   1.660 2.579E-2
  0.1025   826.4   12.10   1.457 7.123E-2   1.637 2.848E-2
  0.1020   823.0   12.15   1.384 9.241E-2   1.611 3.188E-2
  0.1016   819.7   12.20   1.289  0.1265   1.581 3.622E-2
  0.1012   816.3   12.25   1.162  0.1868   1.548 4.187E-2
  0.1008   813.0   12.30  0.9858  0.3097   1.510 4.940E-2
  0.1004   809.7   12.35  0.7844  0.5904   1.466 5.971E-2
 0.09999   806.5   12.40  0.7289   1.072   1.412 7.434E-2
 0.09958   803.2   12.45  0.9288   1.655   1.345 9.608E-2
 0.09919   800.0   12.50   1.587   2.269   1.260  0.1304
 0.09879   796.8   12.55   2.900   2.106   1.148  0.1896
 0.09840   793.7   12.60   3.236   1.105  0.9971  0.3041
 0.09801   790.5   12.65   2.956  0.4893  0.8281  0.5464
 0.09762   787.4   12.70   2.718  0.2805  0.7711  0.9621
 0.09724   784.3   12.75   2.552  0.1823  0.9404   1.473
 0.09686   781.3   12.80   2.433  0.1291   1.482   1.990
 0.09648   778.2   12.85   2.344 9.703E-2   2.539   1.968
 0.09611   775.2   12.90   2.275 7.628E-2   3.011   1.099
 0.09574   772.2   12.95   2.220 6.208E-2   2.834  0.5529
 0.09537   769.2   13.00   2.174 5.194E-2   2.625  0.3183
 0.09501   766.3   13.05   2.136 4.446E-2   2.469  0.2061
 0.09464   763.4   13.10   2.102 3.879E-2   2.355  0.1451
 0.09429   760.5   13.15   2.073 3.441E-2   2.269  0.1085
 0.09393   757.6   13.20   2.047 3.098E-2   2.202 8.480E-2
 0.09357   754.7   13.25   2.024 2.825E-2   2.148 6.861E-2
 0.09322   751.9   13.30   2.002 2.607E-2   2.104 5.705E-2
 0.09287   749.1   13.35   1.983 2.433E-2   2.066 4.851E-2
 0.09253   746.3   13.40   1.964 2.296E-2   2.034 4.201E-2
 0.09218   743.5   13.45   1.947 2.189E-2   2.006 3.696E-2
 0.09184   740.7   13.50   1.930 2.109E-2   1.981 3.295E-2
 0.09150   738.0   13.55   1.915 2.055E-2   1.959 2.972E-2
 0.09117   735.3   13.60   1.899 2.026E-2   1.939 2.708E-2
 0.09083   732.6   13.65   1.884 2.022E-2   1.920 2.489E-2
 0.09050   729.9   13.70   1.869 2.047E-2   1.903 2.305E-2
 0.09017   727.3   13.75   1.854 2.107E-2   1.887 2.151E-2
 0.08984   724.6   13.80   1.839 2.208E-2   1,873 2.019E-2
 0.08952   722.0   13.85   1.823 2.366E-2   1.859 1.906E-2
 0.08920   719.4   13.90   1.807 2.601E-2   1.846 1.809E-2
 0.08888   716.8   13.95   1.789 2.953E-2   1.833 1.725E-2
 0.08856   714.3   14.00   1.769 3.484E-2   1.821 1.651E-2
 0.08825   711.7   14.05   1.746 4.311E-2   1.810 1.587E-2
 0.08793   709.2   14.10   1.719 5.665E-2   1.799 1.531E-2
 0.08762   706.7   14.15   1.686 8.025E-2   1.788 1.482E-2
 0.08731   704.2   14.20   1.649  0.1246   1.778 1.439E-2
 0.08701   701.8   14.25   1.621  0.2119   1.768 1.401E-2
 0.08670   699.3   14.30   1.670  0.3539   1.758 1.368E-2
 0.08640   696.9   14.35   1.867  0.4101   1.749 1.339E-2
 0.08610   694.4   14.40   1.999  0.2820   1.740 1.314E-2
 0.08580   692.0   14.45   1.998  0.1644   1.730 1.292E-2
 0.08551   689.7   14.50   1.964  0.1016   1.721 1.273E-2
 0.08521   687.3   14.55   1.931 6.871E-2   1.713 1.257E-2
 0.08492   684.9   14.60   1.903 5.016E-2   1.704 1.243E-2
 0.08463   682.6   14.65   1.881 3.885E-2   1.695 1.231E-2
 0.08434   680.3   14.70   1.861 3.150E-2   1.687 1.222E-2
 0.08406   678.0   14.75   1.845 2.646E-2   1.678 1.215E-2
 0.08377   675.7   14.80   1.831 2.287E-2   1.670 1.210E-2
 0.08349   673.4   14.85   1.818 2.022E-2   1.661 1.206E-2
 0.08321   671.1   14.90   1.806 1.821E-2   1.653 1.204E-2
 0.08293   668.9   14.95   1.795 1.664E-2   1.644 1.204E-2
 0.08266   666.7   15.00   1.785 1.540E-2   1.636 1.205E-2
 0.08238   664.5   15.05   1.776 1.439E-2   1.628 1.208E-2
 0.08211   662.3   15.10   1.767 1.358E-2   1.619 1.213E-2
 0.08184   660.1   15.15   1.758 1.290E-2   1.611 1.218E-2
 0.08157   657.9   15.20   1.750 1.234E-2   1.602 1.226E-2
 0.08130   655.7   15.25   1.742 1.186E-2   1.594 1.234E-2
 0.08103   653.6   15.30   1.734 1.146E-2   1.585 1.245E-2
 0.08077   651.5   15.35   1.726 1.112E-2   1.576 1.256E-2
 0.08051   649.4   15.40   1.719 1.083E-2   1.568 1.269E-2
 0.08025   647.2   15.45   1.711 1.059E-2   1.559 1.284E-2
 0.07999   645.2   15.50   1.704 1.037E-2   1.550 1.300E-2
 0.07973   643.1   15.55   1.697 1.019E-2   1.541 1.317E-2
 0.07948   641.0   15.60   1.690 1.004E-2   1.532 1.336E-2
 0.07922   639.0   15.65   1.683 9.912E-3   1.522 1.357E-2
 0.07897   636.9   15.70   1.676 9.805E-3   1.513 1.379E-2
 0.07872   634.9   15.75   1.669 9.716E-3   1.504 1.404E-2
 0.07847   632.9   15.80   1.663 9.644E-3   1.494 1.429E-2
 0.07822   630.9   15.85   1.656 9.588E-3   1.484 1.457E-2
 0.07798   628.9   15.90   1.649 9.546E-3   1.474 1.487E-2
 0.07773   627.0   15.95   1.642 9.518E-3   1.464 1.519E-2
 0.07749   625.0   16.00   1.635 9.501E-3   1.453 1.553E-2
 0.07725   623.1   16.05   1.629 9.497E-3   1.443 1.589E-2
 0.07701   621.1   16.10   1.622 9.503E-3   1.432 1.628E-2
 0.07677   619.2   16.15   1.615 9.520E-3   1.421 1.670E-2
 0.07653   617.3   16.20   1.608 9.547E-3   1.410 1.714E-2
 0.07630   615.4   16.25   1.601 9.583E-3   1.398 1.761E-2
 0.07606   613.5   16.30   1.594 9.629E-3   1.386 1.811E-2
 0.07583   611.6   16.35   1.587 9.683E-3   1.374 1.865E-2
 0.07560   609.8   16.40   1.580 9.747E-3   1.361 1.923E-2
 0.07537   607.9   16.45   1.573 9.820E-3   1.349 1.984E-2
 0.07514   606.1   16.50   1.566 9.901E-3   1.335 2.050E-2
 0.07491   604.2   16.55   1.559 9.991E-3   1.322 2.121E-2
 0.07469   602.4   16.60   1.551 1.009E-2   1.308 2.196E-2
 0.07446   600.6   16.65   1.544 1.020E-2   1.293 2.278E-2
 0.07424   598.8   16.70   1.537 1.031E-2   1.278 2.365E-2
 0.07402   597.0   16.75   1.529 1.044E-2   1.263 2.459E-2
 0.07380   595.2   16.80   1.521 1.058E-2   1.247 2.561E-2
 0.07358   593.5   16.85   1.514 1.072E-2   1.230 2.671E-2
 0.07336   591.7   16.90   1.506 1.087E-2   1.213 2.790E-2
 0.07315   590.0   16.95   1.498 1.104E-2   1.195 2.919E-2
 0.07293   588.2   17.00   1.490 1.121E-2   1.175 3.060E-2
 0.07272   586.5   17.05   1.481 1.140E-2   1.157 3.213E-2
 0.07250   584.8   17.10   1.473 1.159E-2   1.136 3.382E-2
 0.07229   583.1   17.15   1.464 1.180E-2   1.115 3.567E-2
 0.07208   581.4   17.20   1.456 1.202E-2   1.093 3.771E-2
 0.07187   579.7   17.25   1.447 1.225E-2   1.069 3.997E-2
 0.07167   578.0   17.30   1.438 1.249E-2   1.045 4.249E-2
 0.07146   576.4   17.35   1.429 1.275E-2   1.019 4.532E-2
 0.07126   574.7   17.40   1.420 1.302E-2  0.9913 4.850E-2
 0.07105   573.1   17.45   1.410 1.331E-2  0.9620 5.211E-2
 0.07085   571.4   17.50   1.400 1.361E-2  0.9309 5.623E-2
 0.07065   569.8   17.55   1.390 1.393E-2  0.8976 6.100E-2
 0.07045   568.2   17.60   1.380 1.427E-2  0.8619 6.655E-2
 0.07025   566.6   17.65   1.370 1.462E-2  0.8234 7.313E-2
 0.07005   565.0   17.70   1.359 1.500E-2  0.7817 8.102E-2
 0.06985   563.4   17.75   1.348 1.540E-2  0.7361 9.068E-2
 0.06965   561.8   17.80   1.337 1.581E-2  0.6860  0.1028
 0.06946   560.2   17.85   1.326 1.626E-2  0.6307  0.1184
 0.06927   558.7   17.90   1.314 1.672E-2  0.5689  0.1394
 0.06907   557.1   17.95   1.302 1.722E-2  0.5001  0.1689
 0.06888   555.6   18.00   1.289 1.774E-2  0.4251  0.2123
 0.06869   554.0   18.05   1.277 1.830E-2  0.3501  0.2764
 0.06850   552.5   18.10   1.263 1.889E-2  0.2886  0.3607
 0.06831   551.0   18.15   1.250 1.951E-2  0.2481  0.4527
 0.06812   549.5   18.20   1.236 2.018E-2  0.2243  0.5420
 0.06794   547.9   18.25   1.221 2.089E-2  0.2109  0.6256
 0.06775   546.4   18.30   1.207 2.165E-2  0.2037  0.7034
 0.06757   545.0   18.35   1.191 2.245E-2  0.2003  0.7763
 0.06738   543.5   18.40   1.175 2.332E-2  0.1990  0.8449
 0.06720   542.0   18.45   1.159 2.424E-2  0.1983  0.9101
 0.06702   540.5   18.50   1.142 2.524E-2  0.1972  0.9728
 0.06684   539.1   18.55   1.124 2.631E-2  0.1950   1.034
 0.06666   537.6   18.60   1.105 2.746E-2  0.1913   1.096
 0.06648   536.2   18.65   1.086 2.871E-2  0.1865   1.160
 0.06630   534.8   18.70   1.066 3.006E-2  0.1814   1.226
 0.06612   533.3   18.75   1.045 3.153E-2  0.1768   1.295
 0.06595   531.9   18.80   1.023 3.313E-2  0.1733   1.367
 0.06577   530.5   18.85   1.000 3.489E-2  0.1713   1.442
 0.06560   529.1   18.90  0.9761 3.682E-2  0.1712   1.520
 0.06543   527.7   18.95  0.9507 3.896E-2  0.1730   1.601
 0.06526   526.3   19.00  0.9239 4.134E-2  0.1768   1.685
 0.06508   524.9   19.05  0.8955 4.401E-2  0.1827   1.773
 0.06491   523.6   19.10  0.8654 4.701E-2  0.1911   1.866
 0.06474   522.2   19.15  0.8333 5.044E-2  0.2023   1.963
 0.06457   520.8   19.20  0.7989 5.438E-2  0.2169   2.065
 0.06441   519.5   19.25  0.7620 5.897E-2  0.2359   2.174
 0.06424   518.1   19.30  0.7221 6.441E-2  0.2608   2.291
 0.06407   516.8   19.35  0.6786 7.099E-2  0.2941   2.417
 0.06391   515.5   19.40  0.6308 7.915E-2  0.3398   2.552
 0.06374   514.1   19.45  0.5777 8.963E-2  0.4042   2.695
 0.06358   512.8   19.50  0.5180  0.1037  0.4971   2.841
 0.06342   511.5   19.55  0.4501  0.1240  0.6278   2.971
 0.06326   510.2   19.60  0.3723  0.1558  0.7847   3.044
 0.06310   508.9   19.65  0.2879  0.2097  0.8957   3.037
 0.06293   507.6   19.70  0.2149  0.2924  0.8839   3.033
 0.06278   506.3   19.75  0.1696  0.3862  0.8042   3.144
 0.06262   505.1   19.80  0.1439  0.4746  0.7526   3.371
 0.06246   503.8   19.85  0.1284  0.5554  0.7629   3.673
 0.06230   502.5   19.90  0.1183  0.6300  0.8405   4.035
 0.06215   501.3   19.95  0.1113 0.69998  0.9974   4.464
 0.06199   500.0   20.00  0.1065  0.7665   1.270   4.976
 0.06184   498.8   20.05  0.1030  0.8304   1.743   5.589
 0.06168   497.5   20.10  0.1006  0.8924   2.597   6.267
 0.06153   496.3   20.15 9.894E-2  0.9530   4.127   6.707
 0.06138   495.0   20.20 9.794E-2   1.013   6.142   5.987
 0.06123   493.8   20.25 9.747E-2   1.072   7.094   4.070
 0.06107   492.6   20.30 9.746E-2   1.130   6.818   2.521
 0.06092   491.4   20.35 9.786E-2   1.189   6.247   1.643
 0.06078   490.2   20.40 9.863E-2   1.247   5.724   1.149
 0.06063   489.0   20.45 9.976E-2   1.306   5.296  0.8527
 0.06048   487.8   20.50  0.1012   1.365   4.951  0.6618
 0.06033   486.6   20.55  0.1031   1.425   4.669  0.5316
 0.06019   485.4   20.60  0.1052   1.486   4.435  0.4386
 0.06004   484.3   20.65  0.1078   1.548   4.238  0.3697
 0.05989   483.1   20.70  0.1107   1.611   4.069  0.3171
 0.05975   481.9   20.75  0.1140   1.676   3.923  0.2759
 0.05961   480.8   20.80  0.1177   1.742   3.795  0.2430
 0.05946   479.6   20.85  0.1219   1.811   3.682  0.2162
 0.05932   478.5   20.90  0.1266   1.881   3.581  0.1941
 0.05918   477.3   20.95  0.1319   1.954   3.490  0.1756
 0.05904   476.2   21.00  0.1379   2.030   3.408  0.1600
 0.05890   475.1   21.05  0.1446   2.108   3.334  0.1466
 0.05876   473.9   21.10  0.1521   2.191   3.265  0.1351
 0.05862   472.8   21.15  0.1606   2.277   3.203  0.1251
 0.05848   471.7   21.20  0.1703   2.368   3.145  0.1164
 0.05834   470.6   21.25  0.1812   2.464   3.091  0.1087
 0.05821   469.5   21.30  0.1937   2.565   3.041  0.1020
 0.05807   468.4   21.35  0.2081   2.673   2.994 9.592E-2
 0.05794   467.3   21.40  0.2248   2.789   2.950 9.054E-2
 0.05780   466.2   21.45  0.2442   2.914   2.909 8.571E-2
 0.05767   465.1   21.50  0.2670   3.048   2.870 8.137E-2
 0.05753   464.0   21.55  0.2941   3.195   2.834 7.745E-2
 0.05740   463.0   21.60  0.3267   3.356   2.799 7.390E-2
 0.05727   461.9   21.65  0.3664   3.533   2.766 7.068E-2
 0.05713   460.8   21.70  0.4154   3.731   2.734 6.776E-2
 0.05700   459.8   21.75  0.4773   3.955   2.704 6.509E-2
 0.05687   458.7   21.80  0.5569   4.209   2.676 6.265E-2
 0.05674   457.7   21.85  0.6622   4.502   2.648 6.043E-2
 0.05661   456.6   21.90  0.8059   4.846   2.622 5.839E-2
 0.05648   455.6   21.95   1.010   5.253   2.596 5.651E-2
 0.05636   454.5   22.00   1.314   5.742   2.572 5.480E-2
 0.05623   453.5   22.05   1.793   6.326   2.548 5.323E-2
 0.05610   452.5   22.10   2.595   6.983   2.526 5.178E-2
 0.05597   451.5   22.15   3.966   7.519   2.504 5.046E-2
 0.05585   450.5   22.20   5.976   7.259   2.482 4.924E-2
 0.05572   449.4   22.25   7.562   5.603   2.462 4.812E-2
 0.05560   448.4   22.30   7.753   3.682   2.441 4.710E-2
 0.05547   447.4   22.35   7.250   2.412   2.422 4.617E-2
 0.05535   446.4   22.40   6.658   1.671   2.403 4.532E-2
 0.05523   445.4   22.45   6.139   1.225   2.384 4.454E-2
 0.05510   444.4   22.50   5.709  0.9407   2.366 4.384E-2
 0.05498   443.5   22.55   5.354  0.7490   2.348 4.320E-2
 0.05486   442.5   22.60   5.058  0.6136   2.330 4.264E-2
 0.05474   441.5   22.65   4.807  0.5142   2.313 4.213E-2
 0.05462   440.5   22.70   4.593  0.4390   2.296 4.168E-2
 0.05450   439.6   22.75   4.406  0.3806   2.279 4.129E-2
 0.05438   438.6   22.80   4.243  0.3343   2.263 4.095E-2
 0.05426   437.6   22.85   4.098  0.2969   2.247 4.067E-2
 0.05414   436.7   22.90   3.968  0.2663   2.231 4.044E-2
 0.05402   435.7   22.95   3.851  0.2408   2.215 4.025E-2
 0.05391   434.8   23.00   3.745  0.2195   2.199 4.012E-2
 0.05379   433.8   23.05   3.648  0.2015   2.184 4.004E-2
 0.05367   432.9   23.10   3.558  0.1861   2.169 4.000E-2
 0.05356   432.0   23.15   3.475  0.1728   2.153 4.001E-2
 0.05344   431.0   23.20   3.398  0.1614   2.138 4.007E-2
 0.05333   430.1   23.25   3.325  0.1515   2.123 4.018E-2
 0.05321   429.2   23.30   3.257  0.1429   2.108 4.034E-2
 0.05310   428.3   23.35   3.192  0.1354   2.093 4.054E-2
 0.05298   427.4   23.40   3.131  0.1289   2.077 4.079E-2
 0.05287   426.4   23.45   3.072  0.1233   2.062 4.110E-2
 0.05276   425.5   23.50   3.015  0.1184   2.047 4.145E-2
 0.05265   424.6   23.55   2.961  0.1142   2.032 4.186E-2
 0.05253   423.7   23.60   2.908  0.1106   2.017 4.232E-2
 0.05242   422.8   23.65   2.857  0.1076   2.001 4.284E-2
 0.05231   421.9   23.70   2.806  0.1052   1.986 4.341E-2
 0.05220   421.1   23.75   2.757  0.1033   1.970 4.405E-2
 0.05209   420.2   23.80   2.708  0.1020   1.954 4.475E-2
 0.05198   419.3   23.85   2.659  0.1012   1.938 4.552E-2
 0.05188   418.4   23.90   2.610  0.1009   1.922 4.635E-2
 0.05177   417.5   23.95   2.651  0.1012   1.906 4.727E-2
 0.05166   416.7   24.00   2.512  0.1020   1.889 4.826E-2
 0.05155   415.8   24.05   2.461  0.1036   1.872 4.933E-2
 0.05144   414.9   24.10   2.409  0.1059   1.855 5.049E-2
 0.05134   414.1   24.15   2.355  0.1090   1.838 5.175E-2
 0.05123   413.2   24.20   2.300  0.1131   1.820 5.311E-2
 0.05113   412.4   24.25   2.241  0.1184   1.802 5.458E-2
 0.05102   411.5   24.30   2.179  0.1252   1.783 5.617E-2
 0.05092   410.7   24.35   2.112  0.1336   1.764 5.789E-2
 0.05081   409.8   24.40   2.041  0.1444   1.744 5.975E-2
 0.05070   409.0   24.45   1.962  0.1581   1.724 6.176E-2
 0.05061   408.2   24.50   1.876  0.1757   1.703 6.393E-2
 0.05050   407.3   24.55   1.779  0.1988   1.682 6.629E-2
 0.05040   406.5   24.60   1.668  0.2298   1.660 6.885E-2
 0.05030   405.7   24.65   1.540  0.2730   1.637 7.163E-2
 0.05020   404.9   24.70   1.390  0.3360   1.614 7.465E-2
 0.05009   404.0   24.75   1.214  0.4336   1.589 7.795E-2
 0.04999   403.2   24.80   1.015  0.5932   1.564 8.155E-2
 0.04989   402.4   24.85  0.8305  0.8431   1.537 8.550E-2
 0.04979   401.6   24.90  0.7156   1.161   1.510 8.984E-2
 0.04969   400.8   24.95  0.6717   1.502   1.481 9.461E-2
 0.04959   400.0   25.00  0.6787   1.853   1.451 9.989E-2
 0.04949   399.2   25.05  0.7284   2.224   1.419  0.1058
 0.04940   398.4   25.10  0.8260   2.630   1.386  0.1123
 0.04930   397.6   25.15  0.9915   3.087   1.350  0.1196
 0.04920   396.8   25.20   1.270   3.618   1.313  0.1279
 0.04910   396.0   25.25   1.759   4.233   1.273  0.1372
 0.04900   395.3   25.30   2.661   4.854   1.231  0.1479
 0.04891   394.5   25.35   4.194   5.028   1.186  0.1602
 0.04881   393.7   25.40   5.689   3.971   1.137  0.1745
 0.04872   392.9   25.45   5.982   2.469   1.085  0.1914
 0.04862   392.2   25.50   5.633   1.515   1.029  0.2116
 0.04853   391.4   25.55   5.220  0.9975  0.9678  0.2362
 0.04843   390.6   25.60   4.872  0.7043  0.9017  0.2665
 0.04834   389.9   25.65   4.595  0.5253  0.8305  0.3047
 0.04824   389.1   25.70   4.373  0.4086  0.7547  0.3537
 0.04815   388.3   25.75   4.193  0.3284  0.6769  0.4168
 0.04805   387.6   25.80   4.044  0.2708  0.6020  0.4962
 0.04796   386.8   25.85   3.919  0.2280  0.5364  0.5907
 0.04787   386.1   25.90   3.812  0.1954  0.4845  0.6952
 0.04778   385.4   25.95   3.720  0.1698  0.4465  0.8037
 0.04769   384.6   26.00   3.639  0.1494  0.4198  0.9127
 0.04759   383.9   26.05   3.568  0.1328  0.4018   1.020
 0.04750   383.1   26.10   3.505  0.1191  0.3905   1.127
 0.04741   382.4   26.15   3.448  0.1077  0.3842   1.232
 0.04732   381.7   26.20   3.397 9.810E-2  0.3820   1.337
 0.04723   381.0   26.25   3.350 8.988E-2  0.3833   1.442
 0.04714   380.2   26.30   3.308 8.280E-2  0.3878   1.548
 0.04705   379.5   26.35   3.269 7.666E-2  0.3952   1.656
 0.04696   378.8   26.40   3.233 7.129E-2  0.4055   1.765
 0.04687   378.1   26.45   3.199 6.656E-2  0.4189   1.877
 0.04679   377.4   26.50   3.168 6.237E-2  0.4345   1.992
 0.04670   376.6   26.55   3.140 5.865E-2  0.4554   2.112
 0.04661   375.9   26.60   3.113 5.531E-2  0.4793   2.236
 0.04652   375.2   26.65   3.087 5.230E-2  0.5078   2.367
 0.04644   374.5   26.70   3.063 4.959E-2  0.5416   2.504
 0.04635   373.8   26.75   3.041 4.713E-2  0.5818   2.649
 0.04626   373.1   26.80   3.020 4.489E-2  0.6297   2.803
 0.04618   372.4   26.85   2.999 4.284E-2  0.6873   2.968
 0.04609   371.7   26.90   2.980 4.096E-2  0.7569   3.145
 0.04600   371.1   26.95   2.962 3.924E-2  0.8419   3.336
 0.04592   370.4   27.00   2.945 3.764E-2  0.9469   3.544
 0.04583   369.7   27.05   2.928 3.617E-2   1.078   3.770
 0.04575   369.0   27.10   2.913 3.480E-2   1.246   4.015
 0.04567   368.3   27.15   2.898 3.353E-2   1.461   4.279
 0.04558   367.6   27.20   2.883 3.235E-2   1.744   4.559
 0.04550   367.0   27.25   2.869 3.125E-2   2.119   4.843
 0.04541   366.3   27.30   2.856 3.021E-2   2.618   5.099
 0.04533   365.6   27.35   2.843 2.924E-2   3.263   5.267
 0.04525   365.0   27.40   2.831 2.833E-2   4.043   5.246
 0.04517   364.3   27.45   2.819 2.748E-2   4.854   4.934
 0.04509   363.6   27.50   2.808 2.667E-2   5.509   4.327
 0.04500   363.0   27.55   2.797 2.591E-2   5.870   3.574
 0.04492   362.3   27.60   2.786 2.519E-2   5.951   2.855
 0.04484   361.7   27.65   2.776 2.451E-2   5.855   2.263
 0.04476   361.0   27.70   2.766 2.386E-2   5.677   1.809
 0.04468   360.4   27.75   2.756 2.325E-2   5.473   1.467
 0.04460   359.7   27.80   2.747 2.267E-2   5.270   1.209
 0.04452   359.1   27.85   2.738 2.212E-2   5.079   1.012
 0.04444   358.4   27.90   2.729 2.159E-2   4.905  0.8598
 0.04436   357.8   27.95   2.720 2.108E-2   4.748  0.7397
 0.04428   357.1   28.00   2.712 2.060E-2   4.607  0.6437
 0.04420   356.5   28.05   2.704 2.014E-2   4.479  0.5657
 0.04412   355.9   28.10   2.696 1.971E-2   4.364  0.5016
 0.04404   355.2   28.15   2.689 1.929E-2   4.260  0.4482
 0.04397   354.6   28.20   2.681 1.888E-2   4.166  0.4033
 0.04389   354.0   28.25   2.674 1.850E-2   4.080  0.3651
 0.04381   353.4   28.30   2.667 1.813E-2   4.002  0.3323
 0.04373   352.7   28.35   2.660 1.777E-2   3.930  0.3040
 0.04366   352.1   28.40   2.653 1.743E-2   3.863  0.2794
 0.04358   351.5   28.45   2.647 1.710E-2   3.802  0.2578
 0.04350   350.9   28.50   2.641 1.678E-2   3.745  0.2388
 0.04343   350.3   28.55   2.634 1.647E-2   3.692  0.2220
 0.04335   349.7   28.60   2.628 1.618E-2   3.643  0.2069
 0.04327   349.0   28.65   2.622 1.589E-2   3.597  0.1935
 0.04320   348.4   28.70   2.617 1.562E-2   3.554  0.1814
 0.04312   347.8   28.75   2.611 1.535E-2   3.514  0.1705
 0.04305   347.2   28.80   2.605 1.510E-2   3.476  0.1607
 0.04297   346.6   28.85   2.600 1.485E-2   3.440  0.1517
 0.04290   346.0   28.90   2.595 1.461E-2   3.407  0.1435
 0.04283   345.4   28.95   2.589 1.438E-2   3.375  0.1360
 0.04275   344.8   29.00   2.584 1.415E-2   3.345  0.1291
 0.04246   342.5   29.20   2.565 1.332E-2   3.238  0.1066
 0.04217   340.1   29.40   2.547 1.258E-2   3.151 8.996E-2
 0.04189   337.8   29.60   2.530 1.192E-2   3.077 7.722E-2
 0.04160   335.6   29.80   2.515 1.132E-2   3.013 6.724E-2
 0.04133   333.3   30.00   2.500 1.079E-2   2.959 5.926E-2
 0.04065   327.9   30.50   2.468 9.643E-3   2.849 4.508E-2
 0.04000   322.6   31.00   2.440 8.721E-3   2.766 3.590E-2
 0.03936   317.5   31.50   2.416 7.962E-3   2.701 2.957E-2
 0.03875   312.5   32.00   2.395 7.326E-3   2.648 2.500E-2
 0.02480   200.0   50.00   2.214 2.86E-3   2.262 1.71E-3
 0.02356   190.0   52.63   2.200 2.68E-3   2.248 1.47E-3
 0.02232   180.0   55.56   2.188 2.48E-3   2.237 1.28E-3
 0.02108   170.0   58.82   2.178 2.29E-3   2.226 1.12E-3
 0.01984   160.0   62.50   2.169 2.14E-3   2.217 9.95E-4
 0.01860   150.0   66.67   2.161 1.91E-3   2.208 9.02E-4
 0.01736   140.0   71.43   2.154 1.82E-3   2.200 7.96E-4
 0.01705   137.5   72.73   2.152 1.85E-3 -0.0001 -0.0001
 0.01674   135.0   74.07   2.150 2.36E-3 -0.0001 -0.0001
 0.01643   132.5   75.47   2.148 3.60E-3 -0.0001 -0.0001
 0.01612   130.0   76.92   2.147 6.18E-3   2.193 6.73E-4
 0.01581   127.5   78.43   2.147 6.74E-3 -0.0001 -0.0001
 0.01550   125.0   80.00   2.148 3.69E-3 -0.0001 -0.0001
 0.01519   122.5   81.63   2.146 1.56E-3 -0.0001 -0.0001
 0.01488   120.0   83.33   2.144 1.06E-3   2.187 5.97E-4
 0.01364   110.0   90.91   2.136 9.40E-4   2.182 5.79E-4
 0.01240   100.0   100.0   2.132 9.55E-4   2.176 4.77E-4
 0.01116    90.0   111.1   2.128 8.84E-4   2.172 4.42E-4
 0.009919      80   125.0   2.124 8.95E-4   2.168 2.98E-4
 0.008679      70   142.9   2.121 9.10E-4   2.164 2.27E-4
 0.007439      60   166.7   2.119 7.96E-4   2.162 2.65E-4
 0.006199      50   200.0  2.1114 7.96E-4   2.159 1.59E-4
 0.004959      40   250.0  2.1096 7.96E-4   2.157 7.96E-5
 0.003720      30   333.3  2.1081 7.96E-4   2.156 5.30E-5
 0.002480      20   500.0  2.1070 -0.0001 -0.0001 -0.0001
 0.001240      10    1000  2.1063 -0.0001 -0.0001 -0.0001
