;UO 
;UO Ta.ASC: Values of n and k for polycrystalline tantalum from various
;UO references in HOCII (pg. 411).  References are 6, 14, 16, 17.
;UO 
;UO From HANDBOOK OF OPTICAL CONSTANTS IN SOLIDS II edited by Edward D.
;UO Palik. Copyright (c) 1991 by Academic Press, Inc. Reproduced by
;UO permission of the publisher.
;UO ---------------------------------------------------------------
;UO      eV     cm-1        um            n           k 
;UO ---------------------------------------------------------------
;N  5
;L  Energy[eV]  Wavelength[cm-1]  Wavelength[um]  n  k  
  10000. 80655000. 0.0001240 0.9999766 1.49E-06
   9772. 78816000. 0.0001269 0.9999748 1.62E-06
   9549. 77017000. 0.0001298 0.9999730 1.75E-06
   9117. 73533000. 0.0001360 0.9999697 2.07E-06
   8706. 70218000. 0.0001424 0.9999664 2.44E-06
   8313. 67049000. 0.0001492 0.9999628 2.88E-06
   7937. 64016000. 0.0001562 0.9999589 3.39E-06
   7579. 61128000. 0.0001636 0.9999548 4.00E-06
   7237. 58370000. 0.0001713 0.9999501 4.72E-06
   6910. 55733000. 0.0001794 0.9999451 5.56E-06
   6598. 53216000. 0.0001879 0.9999396 6.55E-06
   6300. 50813000. 0.0001968 0.9999336 7.72E-06
   6015. 48514000. 0.0002061 0.9999270 9.10E-06
   5744. 46328000. 0.0002159 0.9999198 1.07E-05
   5484. 44231000. 0.0002261 0.9999120 1.26E-05
   5237. 42239000. 0.0002368 0.9999033 1.48E-05
   5000. 40328000. 0.0002480 0.999894 1.75E-05
   4775. 38513000. 0.0002597 0.999884 2.06E-05
   4559. 36771000. 0.0002720 0.999873 2.42E-05
   4353. 35109000. 0.0002848 0.999861 2.84E-05
   4157. 33528000. 0.0002983 0.999847 3.34E-05
   3969. 32012000. 0.0003124 0.999833 3.92E-05
   3790. 30568000. 0.0003272 0.999818 4.60E-05
   3619. 29189000. 0.0003426 0.999801 5.40E-05
   3455. 27866000. 0.0003588 0.999784 6.33E-05
   3299. 26608000. 0.0003758 0.999765 7.42E-05
   3150. 25406000. 0.0003936 0.999745 8.69E-05
   3008. 24261000. 0.0004122 0.999725 1.02E-04
   2872. 23164000. 0.0004317 0.999704 1.19E-04
   2807. 22640000. 0.0004418 0.999694 1.28E-04
   2742. 22116000. 0.0004521 0.999685 1.39E-04
   2680. 21616000. 0.0004627 0.999673 1.44E-04
   2619. 21124000. 0.0004735 0.999661 1.56E-04
   2559. 20640000. 0.0004846 0.999650 1.70E-04
   2500. 20164000. 0.0004959 0.999644 1.84E-04
   2443. 19704000. 0.0005075 0.999634 1.87E-04
   2387. 19252000. 0.0005193 0.999619 2.03E-04
   2280. 18389000. 0.0005439 0.999601 2.40E-04
   2228. 17970000. 0.0005566 0.999602 2.60E-04
   2177. 17559000. 0.0005696 0.999603 2.42E-04
   2127. 17155000. 0.0005829 0.999577 2.62E-04
   2078. 16760000. 0.0005965 0.999563 2.84E-04
   1985. 16010000. 0.0006248 0.999552 3.32E-04
   1895. 15284000. 0.0006543 0.999569 3.90E-04
   1852. 14937000. 0.0006696 0.999604 4.22E-04
   1809. 14590000. 0.0006852 0.999696 4.21E-04
   1768. 14260000. 0.0007013 0.999757 3.20E-04
   1728. 13937000. 0.0007176 0.999723 1.14E-04
   1688. 13615000. 0.0007344 0.999592 1.23E-04
   1650. 13308000. 0.0007516 0.999516 1.32E-04
   1575. 12703000. 0.0007871 0.999405 1.53E-04
   1504. 12131000. 0.0008244 0.999307 1.78E-04
   1436. 11582000. 0.0008633 0.999212 2.05E-04
   1371. 11058000. 0.0009041 0.999114 2.37E-04
   1309. 10558000. 0.0009469 0.999012 2.74E-04
   1250. 10082000. 0.0009917 0.99890 3.16E-04
   1194. 9630200. 0.001039 0.99879 3.64E-04
   1140. 9194700. 0.001088 0.99867 4.19E-04
   1088. 8775300. 0.001139 0.99854 4.82E-04
   1039. 8380100. 0.001193 0.99840 5.54E-04
   992.3 8003400. 0.001249 0.99825 6.36E-04
   947.5 7642100. 0.001309 0.99809 7.28E-04
   904.7 7296900. 0.001370 0.99792 8.31E-04
   863.9 6967800. 0.001435 0.99774 9.48E-04
   824.9 6653200. 0.001503 0.99756 1.08E-03
   787.7 6353200. 0.001574 0.99736 1.23E-03
   752.1 6066100. 0.001649 0.99715 1.39E-03
   718.1 5791800. 0.001727 0.99693 1.58E-03
   685.7 5530500. 0.001808 0.99671 1.78E-03
   654.7 5280500. 0.001894 0.99646 2.01E-03
   625.1 5041700. 0.001983 0.99623 2.27E-03
   596.9 4814300. 0.002077 0.99600 2.56E-03
   583.3 4704600. 0.002126 0.99591 2.71E-03
   570.0 4597300. 0.002175 0.99583 2.84E-03
   557.0 4492500. 0.002226 0.99571 2.90E-03
   544.2 4389200. 0.002278 0.99551 3.03E-03
   519.7 4191600. 0.002386 0.99521 3.38E-03
   496.2 4002100. 0.002499 0.99491 3.74E-03
   473.8 3821400. 0.002617 0.99462 4.14E-03
   463.0 3734300. 0.002678 0.99449 4.35E-03
   452.4 3648800. 0.002741 0.99438 4.56E-03
   442.1 3565800. 0.002804 0.99427 4.73E-03
   432.0 3484300. 0.002870 0.99413 4.89E-03
   412.5 3327000. 0.003006 0.99379 5.22E-03
   403.0 3250400. 0.003076 0.99359 5.39E-03
   393.8 3176200. 0.003148 0.99334 5.59E-03
   384.8 3103600. 0.003222 0.99309 5.83E-03
   376.1 3033400. 0.003297 0.99286 6.09E-03
   359.1 2896300. 0.003453 0.99238 6.65E-03
   342.9 2765700. 0.003616 0.99191 7.26E-03
   327.4 2640600. 0.003787 0.99142 7.93E-03
   312.6 2521300. 0.003966 0.99092 8.66E-03
   298.5 2407600. 0.004154 0.99044 9.46E-03
   285.0 2298700. 0.004350  0.9900 1.03E-02
   272.1 2194600. 0.004556  0.9897 1.12E-02
   259.9 2096200. 0.004771  0.9893 1.19E-02
   248.1 2001100. 0.004997  0.9888 1.27E-02
   242.5 1955900. 0.005114  0.9885 1.31E-02
   236.9 1910700. 0.005233  0.9882 1.36E-02
   231.5 1867200. 0.005356  0.9879 1.40E-02
   226.2 1824400. 0.005481  0.9876 1.45E-02
   221.1 1783300. 0.005609  0.9873 1.50E-02
   216.0 1742100. 0.005740  0.9870 1.54E-02
   206.2 1663100. 0.006012  0.9865 1.64E-02
   196.9 1588100. 0.006296  0.9858 1.73E-02
   188.0 1516300. 0.006594  0.9852 1.82E-02
   179.6 1448600. 0.006905  0.9843 1.90E-02
   171.4 1382400. 0.007232  0.9832 1.99E-02
   163.7 1320300. 0.007574  0.9820 2.10E-02
   156.3 1260600. 0.007932  0.9807 2.21E-02
   149.3 1204200. 0.008307  0.9793 2.32E-02
   142.5 1149300. 0.008700  0.9777 2.45E-02
   136.1 1097700. 0.009111  0.9760 2.57E-02
   129.9 1047700. 0.009542  0.9740 2.70E-02
   124.1 1000900. 0.009994  0.9719 2.82E-02
   118.5 955760. 0.01047  0.9693 2.92E-02
   113.1 912210. 0.01096  0.9660 3.03E-02
   108.0 871070. 0.01148  0.9621 3.19E-02
   103.1 831550. 0.01202  0.9579 3.36E-02
   98.47 794210. 0.01259  0.9524 3.55E-02
   94.03 758400. 0.01319  0.9462 3.89E-02
   89.78 724120. 0.01381  0.9398 4.27E-02
   85.73 691460. 0.01446  0.9329 4.71E-02
   81.85 660160. 0.01515  0.9250 5.20E-02
   78.16 630400. 0.01586  0.9151 5.82E-02
   74.63 601930. 0.01661  0.9047 6.71E-02
   71.26 574750. 0.01740  0.8937 7.77E-02
   68.04 548780. 0.01822  0.8814 9.22E-02
   64.97 524020. 0.01908  0.8714   0.110
   62.04 500380. 0.02000  0.8623   0.131
   59.24 477800. 0.02093  0.8546   0.156
   56.56 456180. 0.02192  0.8508   0.188
   54.01 435620. 0.02296  0.8567   0.225
   51.57 415940. 0.02404  0.8744   0.256
    500. 4032800. 0.002480 -0.0001 6.0E-03
    400. 3226200. 0.003100 -0.0001 8.0E-03
    300. 2419700. 0.004133 -0.0001 1.2E-02
    200. 1613100. 0.006199 -0.0001 2.0E-02
    190. 1532400. 0.006526 -0.0001 2.1E-02
    180. 1451800. 0.006888 -0.0001 5.0E-03
    170. 1371100. 0.007293 -0.0001 2.4E-02
    160. 1290500. 0.007749 -0.0001 2.6E-02
    150. 1209800. 0.008266 -0.0001 2.9E-02
    140. 1129200. 0.008856 -0.0001 3.1E-02
    130. 1048500. 0.009537 -0.0001 3.4E-02
    120. 967860. 0.01033 -0.0001 3.7E-02
    110. 887210. 0.01127 -0.0001 4.0E-02
    100. 806550. 0.01240 -0.0001 4.4E-02
    90.0 725900. 0.01378 -0.0001 5.0E-02
    80.0 645240. 0.01550 -0.0001 6.0E-02
    70.0 564590. 0.01771 -0.0001 8.0E-02
    60.0 483930. 0.02066 -0.0001   0.148
    55.0 443600. 0.02254 -0.0001   0.233
    50.0 403280. 0.02480 -0.0001   0.322
    45.0 362950. 0.02755 -0.0001   0.268
    44.0 354880. 0.02818 -0.0001   0.269
    41.0 330690. 0.03024 -0.0001   0.296
    40.0 322620. 0.03100 -0.0001   0.291
    40.0 322620. 0.03100    0.95    0.29
    39.5 318590. 0.03139    0.96    0.29
    39.0 314550. 0.03179    0.97    0.29
    38.5 310520. 0.03220    0.97    0.29
    38.0 306490. 0.03263    0.98    0.28
    37.5 302460. 0.03306    0.98    0.28
    37.0 298420. 0.03351    0.99    0.28
    36.5 294390. 0.03397    0.99    0.27
    36.0 290360. 0.03444    0.99    0.27
    35.5 286330. 0.03493    0.99    0.27
    35.0 282290. 0.03542    0.99    0.26
    35.0 282290. 0.03542 -0.0001   0.248
    34.5 278260. 0.03594    0.99    0.26
    34.0 274230. 0.03647    0.99    0.25
    33.5 270190. 0.03701    0.98    0.25
    33.0 266160. 0.03757    0.98    0.25
    33.0 266160. 0.03757 -0.0001   0.239
    32.5 262130. 0.03815    0.98    0.24
    32.0 258100. 0.03875    0.98    0.24
    31.5 254060. 0.03936    0.97    0.24
    31.0 250030. 0.03999    0.97    0.23
    30.5 246000. 0.04065    0.96    0.23
    30.0 241970. 0.04133    0.95    0.22
    30.0 241970. 0.04133 -0.0001   0.313
    29.8 240350. 0.04161    0.95    0.22
    29.6 238740. 0.04189    0.94    0.22
    29.4 237130. 0.04217    0.94    0.22
    29.2 235510. 0.04246    0.93    0.22
    29.0 233900. 0.04275    0.92    0.22
    28.8 232290. 0.04305    0.92    0.22
    28.6 230670. 0.04335    0.91    0.22
    28.4 229060. 0.04366    0.91    0.22
    28.2 227450. 0.04397    0.90    0.22
    28.0 225830. 0.04428    0.90    0.23
    27.8 224220. 0.04460    0.89    0.23
    27.6 222610. 0.04492    0.89    0.23
    27.4 220990. 0.04525    0.88    0.24
    27.2 219380. 0.04558    0.88    0.24
    27.0 217770. 0.04592    0.87    0.25
    26.8 216160. 0.04626    0.87    0.25
    26.6 214540. 0.04661    0.87    0.26
    26.4 212930. 0.04696    0.87    0.26
    26.2 211320. 0.04732    0.88    0.26
    26.0 209700. 0.04769    0.88    0.25
    25.8 208090. 0.04806    0.87    0.25
    25.6 206480. 0.04843    0.86    0.24
    25.4 204860. 0.04881    0.85    0.24
    25.2 203250. 0.04920    0.84    0.25
    25.0 201640. 0.04959    0.83    0.25
    24.8 200020. 0.04999    0.83    0.25
    24.6 198410. 0.05040    0.82    0.25
    24.4 196800. 0.05081    0.81    0.25
    24.2 195190. 0.05123    0.80    0.26
    24.0 193570. 0.05166    0.80    0.26
    23.9 192770. 0.05188    0.79    0.27
    23.8 191960. 0.05209    0.80    0.27
    23.7 191150. 0.05231    0.80    0.27
    23.6 190350. 0.05254    0.80    0.26
    23.5 189540. 0.05276    0.79    0.25
    23.4 188730. 0.05298    0.79    0.25
    23.2 187120. 0.05344    0.76    0.24
    23.0 185510. 0.05391    0.73    0.24
    22.8 183890. 0.05438    0.71    0.26
    22.6 182280. 0.05486    0.69    0.27
    22.4 180670. 0.05535    0.68    0.29
    22.2 179050. 0.05585    0.66    0.30
    22.0 177440. 0.05636    0.64    0.32
    21.8 175830. 0.05687    0.64    0.34
    21.6 174210. 0.05740    0.64    0.34
    21.4 172600. 0.05794    0.61    0.35
    21.2 170990. 0.05848    0.59    0.37
    21.0 169380. 0.05904    0.57    0.39
    20.8 167760. 0.05961    0.56    0.42
    20.6 166150. 0.06019    0.55    0.44
    20.4 164540. 0.06078    0.55    0.47
    20.2 162920. 0.06138    0.54    0.50
    20.0 161310. 0.06199    0.54    0.52
    19.8 159700. 0.06262    0.53    0.55
    19.6 158080. 0.06326    0.53    0.57
    19.4 156470. 0.06391    0.53    0.60
    19.2 154860. 0.06458    0.52    0.63
    19.0 153240. 0.06525    0.53    0.65
    18.8 151630. 0.06595    0.53    0.68
    18.6 150020. 0.06666    0.53    0.71
    18.4 148410. 0.06738    0.54    0.73
    18.2 146790. 0.06812    0.54    0.76
    18.0 145180. 0.06888    0.55    0.79
    17.8 143570. 0.06965    0.56    0.81
    17.6 141950. 0.07045    0.56    0.84
    17.4 140340. 0.07126    0.57    0.87
    17.2 138730. 0.07208    0.58    0.89
    17.0 137110. 0.07293    0.60    0.92
    16.8 135500. 0.07380    0.61    0.94
    16.6 133890. 0.07469    0.63    0.97
    16.4 132270. 0.07560    0.64    0.99
    16.2 130660. 0.07653    0.66    1.02
    16.0 129050. 0.07749    0.68    1.04
    15.8 127430. 0.07847    0.70    1.06
    15.6 125820. 0.07948    0.72    1.08
    15.4 124210. 0.08051    0.75    1.10
    15.2 122600. 0.08157    0.77    1.12
    15.0 120980. 0.08266    0.80    1.13
    14.8 119370. 0.08377    0.82    1.14
    14.6 117760. 0.08492    0.85    1.15
    14.4 116140. 0.08610    0.87    1.15
    14.2 114530. 0.08731    0.89    1.15
    14.0 112920. 0.08856    0.90    1.15
    13.8 111300. 0.08984    0.91    1.16
    13.6 109690. 0.09116    0.91    1.16
    13.4 108080. 0.09253    0.91    1.18
    13.2 106460. 0.09393    0.92    1.20
    13.0 104850. 0.09537    0.93    1.22
    12.8 103240. 0.09686    0.94    1.24
    12.6 101630. 0.09840    0.96    1.26
    12.4 100010. 0.09999    0.98    1.28
    12.2  98399.  0.1016    1.00    1.29
    12.0  96786.  0.1033    1.02    1.31
    11.8  95173.  0.1051    1.05    1.32
    11.6  93560.  0.1069    1.07    1.33
    11.4  91946.  0.1088    1.09    1.34
    11.2  90333.  0.1107    1.11    1.35
    11.0  88720.  0.1127    1.13    1.35
    10.8  87107.  0.1148    1.15    1.36
    10.6  85494.  0.1170    1.16    1.36
    10.4  83881.  0.1192    1.18    1.37
    10.2  82268.  0.1216    1.19    1.37
    10.0  80655.  0.1240    1.20    1.37
     9.8  79042.  0.1265    1.21    1.37
     9.6  77429.  0.1292    1.21    1.38
     9.4  75816.  0.1319    1.21    1.38
     9.2  74202.  0.1348    1.21    1.38
     9.0  72589.  0.1378    1.19    1.40
     8.8  70976.  0.1409    1.17    1.41
     8.6  69363.  0.1442    1.14    1.45
     8.4  67750.  0.1476    1.13    1.50
     8.2  66137.  0.1512    1.12    1.55
     8.0  64524.  0.1550    1.11    1.61
     7.8  62911.  0.1590    1.11    1.68
     7.6  61298.  0.1631    1.12    1.75
     7.4  59684.  0.1675    1.13    1.82
     7.2  58071.  0.1722    1.15    1.91
     7.0  56458.  0.1771    1.18    2.01
     6.8  54845.  0.1823    1.23    2.11
     6.6  53232.  0.1879    1.29    2.22
     6.4  51619.  0.1937    1.37    2.33
     6.2  50006.  0.2000    1.48    2.45
     6.0  48393.  0.2066    1.63    2.56
     5.8  46780.  0.2138    1.83    2.63
     5.6  45167.  0.2214    2.06    2.67
     5.4  43554.  0.2296    2.31    2.61
     5.2  41940.  0.2384    2.52    2.44
     5.0  40327.  0.2480    2.58    2.20
     4.8  38714.  0.2583    2.53    2.06
     4.6  37101.  0.2695    2.45    2.06
     4.4  35488.  0.2818    2.39    2.01
     4.2  33875.  0.2952    2.35    2.06
     4.0  32262.  0.3100    2.36    2.14
     3.8  30649.  0.3263    2.40    2.22
     3.6  29036.  0.3444    2.49    2.30
     3.4  27423.  0.3647    2.61    2.33
     3.2  25810.  0.3875    2.73    2.31
     3.0  24196.  0.4133    2.81    2.24
     2.9  23390.  0.4275    2.84    2.20
     2.8  22583.  0.4428    2.85    2.14
     2.7  21777.  0.4592    2.84    2.08
     2.6  20970.  0.4769    2.80    2.02
     2.5  20164.  0.4959    2.75    1.98
     2.4  19357.  0.5166    2.68    1.92
     2.3  18551.  0.5391    2.56    1.86
     2.2  17744.  0.5636    2.36    1.81
     2.1  16938.  0.5904    2.10    1.84
     2.0  16131.  0.6199    1.83    1.99
     1.9  15324.  0.6525    1.57    2.24
     1.8  14518.  0.6888    1.35    2.60
     1.7  13711.  0.7293    1.24    2.95
     1.6  12905.  0.7749    1.15    3.33
     1.5  12098.  0.8266    1.09    3.73
     1.4  11292.  0.8856    1.04    4.15
     1.3  10485.  0.9537    1.00    4.62
     1.2   9679.   1.033   0.980    5.14
     1.1   8872.   1.127   0.930    5.75
     1.0   8065.   1.240   0.890    6.47
    0.98   7904.   1.265   0.880    6.64
    0.94   7582.   1.319   0.860    6.99
    0.90   7259.   1.378   0.840    7.38
    0.86   6936.   1.442   0.850    7.81
    0.82   6614.   1.512   0.860    8.27
    0.78   6291.   1.590   0.890    8.77
    0.74   5968.   1.675   0.920    9.32
    0.70   5646.   1.771   0.960    9.92
    0.66   5323.   1.879    1.00    10.6
    0.62   5001.   2.000    1.06    11.4
    0.58   4678.   2.138    1.15    12.2
    0.54   4355.   2.296    1.25    13.1
    0.50   4033.   2.480    1.37    14.3
    0.46   3710.   2.695    1.54    15.6
    0.42   3388.   2.952    1.75    17.1
    0.38   3065.   3.263    2.03    18.9
    0.34   2742.   3.647    2.40    21.1
    0.30   2420.   4.133    2.87    23.9
    0.28   2258.   4.428    3.23    25.6
    0.26   2097.   4.769    3.67    27.5
    0.24   1936.   5.166    4.20    29.8
    0.22   1774.   5.636    4.88    32.4
    0.20   1613.   6.199    5.77    35.5
    0.19   1533.   6.525    6.29    37.2
    0.18   1452.   6.888    6.91    39.2
    0.16   1290.   7.749    8.45    43.7
    0.15   1210.   8.266    9.45    46.4
    0.14   1129.   8.856    10.6    49.4
    0.13   1049.   9.537    12.1    52.9
    0.12   967.9   10.33    14.0    56.8
  0.1116    900.   11.11    15.6    54.6
 0.09919    800.   12.50    19.1    59.9
 0.08679    700.   14.29    24.2    66.4
 0.07439    600.   16.67    31.5    73.9
 0.06199    500.   20.00    41.7    82.8
 0.05579    450.   22.22    48.4    93.1
 0.04959    400.   25.00    56.4    98.9
 0.04339    350.   28.57    66.1    105.
 0.03720    300.   33.33    77.9    111.
 0.03100    250.   40.00    92.0    119.
 0.02790    225.   44.44    100.    127.
 0.02480    200.   50.00    109.    137.
 0.02170    175.   57.14    119.    143.
 0.01860    150.   66.67    131.    151.
 0.01550    125.   80.00    146.    162.
 0.01240    100.   100.0    164.    178.
 0.009919     80.   125.0    184.    197.
