;UO 
;UO ThF4.ASC: Values of n and k for polycrystalline thorium fluoride
;UO from various references in HOCII (pg. 1056). References are 3,
;UO 11, 12, 14, 16, 17, 21.
;UO 
;UO From HANDBOOK OF OPTICAL CONSTANTS IN SOLIDS II edited by Edward D.
;UO Palik. Copyright (c) 1991 by Academic Press, Inc. Reproduced by
;UO permission of the publisher.
;UO ------------------------------------------------------------- 
;UO   eV            cm-1     um          n          k          n 
;UO -------------------------------------------------------------
;N  6
;L  Energy[eV]  Wavelength[cm-1]  Wavelength[um]  n  k  n  
   5.635  45455.    0.22   1.613 -0.0001   1.728
   5.391  43478.    0.23   1.599 -0.0001   1.702
   5.166  41667.    0.24   1.587 -0.0001   1.682
   4.959  40000.    0.25   1.577 -0.0001   1.664
   4.769  38462.    0.26   1.569 -0.0001   1.652
   4.592  37037.    0.27   1.563 -0.0001   1.642
   4.428  35714.    0.28   1.557 -0.0001   1.632
   4.275  34483.    0.29   1.553 -0.0001   1.624
   4.133  33333.    0.30   1.549 -0.0001   1.617
   4.000  32258.    0.31   1.545 -0.0001   1.611
   3.875  31250.    0.32   1.542 -0.0001   1.606
   3.757  30303.    0.33   1.540 -0.0001   1.601
   3.646  29412.    0.34   1.538 -0.0001   1.597
   3.543  28571.    0.35   1.536 -0.0001   1.593
   3.444  27778.    0.36   1.534 -0.0001   1.590
   3.351  27027.    0.37   1.532 -0.0001   1.587
   3.263  26316.    0.38   1.531 -0.0001   1.584
   3.179  25641.    0.39   1.530 -0.0001   1.582
   3.100  25000.    0.40   1.529 -0.0001   1.579
   3.024  24390.    0.41   1.528 -0.0001   1.577
   2.952  23809.    0.42   1.527 -0.0001   1.575
   2.883  23256.    0.43   1.526 -0.0001   1.574
   2.845  22946.  0.4358   1.533 -0.0001 -0.0001
   2.818  22727.    0.44   1.526 -0.0001   1.572
   2.755  22222.    0.45   1.525 -0.0001   1.571
   2.695  21739.    0.46   1.524 -0.0001   1.569
   2.638  21277.    0.47   1.524 -0.0001   1.568
   2.583  20833.    0.48   1.523 -0.0001   1.567
   2.530  20408.    0.49   1.523 -0.0001   1.566
   2.480  20000.    0.50   1.523 -0.0001   1.565
   2.431  19608.    0.51   1.522 -0.0001   1.564
   2.407  19418.   0.515 -0.0001 3.3E-06 -0.0001
   2.384  19231.    0.52   1.522 -0.0001   1.563
   2.296  18519.    0.54   1.521 -0.0001   1.561
   2.271  18312.   0.546   1.521 -0.0001 -0.0001
   2.214  17857.    0.56   1.521 -0.0001   1.560
   2.138  17241.    0.58   1.520 -0.0001   1.559
   2.066  16667.    0.60   1.520 -0.0001   1.558
   2.066  16667.    0.60 -0.0001 -0.0001   1.560
   2.000  16129.    0.62   1.520 -0.0001   1.557
   1.937  15625.    0.64   1.519 -0.0001   1.556
   1.879  15152.    0.66   1.519 -0.0001   1.555
   1.771  14286.    0.70   1.519 -0.0001   1.554
   1.676  13513.    0.74   1.518 -0.0001   1.553
   1.590  12821.    0.78   1.518 -0.0001   1.552
   1.550  12500.    0.80   1.518 -0.0001   1.551
   1.378  11111.    0.90 -0.0001 -0.0001   1.550
   1.240  10000.    1.00 -0.0001 -0.0001   1.548
   1.170   9434.    1.06 -0.0001 1.3E-06   1.548
   1.033   8333.     1.2 -0.0001 -0.0001   1.547
  0.8266   6667.     1.5 -0.0001 -0.0001   1.546
  0.6199   5000.     2.0 -0.0001 -0.0001   1.544
  0.3100   2500.     4.0    1.55 1.5E-03 -0.0001
  0.3024   2439.     4.1    1.54 1.4E-03 -0.0001
  0.2883   2326.     4.3    1.53 1.4E-03 -0.0001
  0.2755   2222.     4.5    1.52 1.4E-03 -0.0001
  0.2638   2128.     4.7    1.51 1.4E-03 -0.0001
  0.2480   2000.     5.0    1.49 1.4E-03 -0.0001
  0.2384   1923.     5.2    1.48 1.4E-03 -0.0001
  0.2296   1852.     5.4    1.47 1.4E-03 -0.0001
  0.2214   1786.     5.6    1.46 1.4E-03 -0.0001
  0.2138   1724.     5.8    1.45 1.4E-03 -0.0001
  0.2067   1667.     6.0    1.45 1.4E-03 -0.0001
  0.2001   1613.     6.2    1.44 1.3E-03 -0.0001
  0.1937   1563.     6.4    1.43 1.3E-03 -0.0001
  0.1879   1515.     6.6    1.42 1.3E-03 -0.0001
  0.1771   1429.     7.0    1.41 1.3E-03 -0.0001
  0.1653   1333.     7.5    1.39 1.3E-03 -0.0001
  0.1550   1250.     8.0    1.38 1.3E-03 -0.0001
  0.1459   1177.     8.5    1.37 1.3E-03 -0.0001
  0.1378   1111.     9.0    1.35 1.4E-03 -0.0001
  0.1292   1042.     9.6    1.34 1.4E-03 -0.0001
  0.1240   1000.    10.0    1.33 1.4E-03 -0.0001
  0.1170   943.4    10.6    1.32 1.4E-03 -0.0001
  0.1170   943.4    10.6    1.35 -0.0001 -0.0001
  0.1127   909.1    11.0    1.32 1.4E-03 -0.0001
  0.1078   869.6    11.5    1.31 1.4E-03 -0.0001
  0.1033   833.3    12.0    1.30 1.4E-03 -0.0001
