;UO 
;UO V.ASC: Values of n and k for polycrystalline vanadium from
;UO various references in HOCII (pg. 482).  References are 7, 8,
;UO 12, 13, 19.
;UO 
;UO From HANDBOOK OF OPTICAL CONSTANTS IN SOLIDS II edited by Edward D.
;UO Palik. Copyright (c) 1991 by Academic Press, Inc. Reproduced by
;UO permission of the publisher.
;UO ------------------------------------------------------------
;UO    eV      cm-1       um           n          k 
;UO ------------------------------------------------------------	
;N  5
;L  Energy[eV]  Wavelength[cm-1]  Wavelength[um]  n  k  
   300.0 2419700. 0.004133 -0.0001 3.0E-03
   275.0 2218000. 0.004508 -0.0001 3.9E-03
   250.0 2016400. 0.004959 -0.0001 4.8E-03
   225.0 1814700. 0.005510 -0.0001 5.7E-03
   200.0 1613100. 0.006199 -0.0001 6.6E-03
   195.0 1572800. 0.006358 -0.0001 6.9E-03
   190.0 1532400. 0.006526 -0.0001 7.2E-03
   185.0 1492100. 0.006702 -0.0001 7.6E-03
   180.0 1451800. 0.006888 -0.0001 8.0E-03
   175.0 1411500. 0.007085 -0.0001 8.5E-03
   170.0 1371100. 0.007293 -0.0001 8.9E-03
   165.0 1330800. 0.007514 -0.0001 9.5E-03
   160.0 1290500. 0.007749 -0.0001 1.0E-03
   155.0 1250200. 0.007999 -0.0001 1.08E-02
   150.0 1209800. 0.008266 -0.0001 1.14E-02
   145.0 1169500. 0.008551 -0.0001 1.22E-02
   140.0 1129200. 0.008856 -0.0001 1.29E-02
   135.0 1088800. 0.009184 -0.0001 1.38E-02
   130.0 1048500. 0.009537 -0.0001 1.46E-02
   125.0 1008200. 0.009919 -0.0001 1.67E-02
   120.0 967860. 0.010332    0.96 1.96E-02
   117.5 947700. 0.010552    0.96 2.09E-02
   115.0 927530. 0.010781    0.95 2.36E-02
   112.5 907370. 0.011021    0.95 2.50E-02
   110.0 887210. 0.011271    0.95 2.63E-02
   107.5 867040. 0.011534    0.95 2.77E-02
   105.0 846880. 0.011808    0.94 2.91E-02
   102.5 826710. 0.012096    0.94 3.19E-02
   100.0 806550. 0.012399    0.94 3.33E-02
    97.5 786390. 0.012716    0.94 3.74E-02
    95.0 766220. 0.013051    0.93 3.88E-02
    92.5 746060. 0.013404    0.93 4.04E-02
    90.0 725900. 0.013776    0.93 4.32E-02
    87.5 705730. 0.014170    0.92 4.60E-02
    85.0 685570. 0.014586    0.92 4.90E-02
    82.5 665400. 0.015029    0.92 5.19E-02
    80.0 645240. 0.015498    0.91 5.48E-02
    77.5 625080. 0.015998    0.91 6.06E-02
    75.0 604910. 0.016531    0.90 6.65E-02
    72.5 584750. 0.017101    0.90 7.24E-02
    70.0 564590. 0.017712    0.90 8.07E-02
    67.5 544420. 0.018368    0.89 9.29E-02
    65.0 524260. 0.019075    0.88    0.10
    62.5 504090. 0.019838    0.88    0.12
    60.0 483930. 0.020664    0.87    0.14
    57.5 463770. 0.021563    0.86    0.16
    55.0 443600. 0.022543    0.87    0.19
    52.5 423440. 0.023616    0.89    0.22
    50.0 403280. 0.024797    0.91    0.24
    47.5 383110. 0.026102    0.94    0.25
    45.0 362950. 0.027552    0.98    0.25
    42.5 342780. 0.029173    1.01    0.23
    40.0 322620. 0.030996    0.94    0.16
    39.0 314550. 0.031791    0.93    0.17
    38.0 306490. 0.032628    0.92    0.18
    37.0 298420. 0.033510    0.90    0.19
    36.0 290360. 0.034440    0.89    0.19
    35.0 282920. 0.035424    0.88    0.19
    34.0 274230. 0.036466    0.86    0.19
    33.0 266160. 0.037571    0.83    0.19
    32.0 258100. 0.038745    0.83    0.18
    31.0 250030. 0.039995    0.84    0.18
    30.0 241970. 0.041328    0.84    0.16
    29.0 233900. 0.042754    0.84    0.15
    28.0 225830. 0.044280    0.84    0.12
    27.0 217770. 0.045920    0.83    0.10
    26.0 209700. 0.047687    0.83    0.13
    25.0 201640. 0.049594    0.81    0.17
    24.0 193570. 0.051660    0.80    0.22
    23.0 185510. 0.053907    0.78    0.25
    22.0 177440. 0.056357    0.76    0.29
    21.0 169380. 0.059041    0.71    0.35
    20.0 161310. 0.061993    0.71    0.42
    19.0 153240. 0.065255    0.72    0.44
    18.0 145180. 0.068881    0.78    0.48
    17.0 137110. 0.072932    0.83    0.51
    16.0 129050. 0.077491    0.87    0.52
    15.0 120980. 0.082657    0.92    0.56
    14.0 112920. 0.088561    0.97    0.61
    13.0 104850. 0.095373    1.02    0.67
    12.0  96786.  0.1033    1.04    0.78
    11.0  88720.  0.1127    1.08    0.76
    10.0  80655.  0.1240    1.10    0.80
    9.00  72589.  0.1378    1.11    0.83
    8.00  64524.  0.1550    1.10    0.87
    7.00  56458.  0.1771    1.09    0.95
    6.00  48393.  0.2066    1.14    2.18
    5.90  47586.  0.2101    1.14    2.20
    5.80  46780.  0.2138    1.13    2.21
    5.70  45973.  0.2175    1.12    2.22
    5.60  45167.  0.2214    1.12    2.22
    5.50  44360.  0.2254    1.13    2.21
    5.40  43554.  0.2296    1.14    2.21
    5.30  42747.  0.2339    1.16    2.21
    5.20  41940.  0.2384    1.17    2.21
    5.10  41134.  0.2431    1.20    2.18
    5.00  40327.  0.2480    1.23    2.19
    4.90  39521.  0.2530    1.26    2.20
    4.80  38714.  0.2583    1.30    2.20
    4.70  37908.  0.2638    1.30    2.29
    4.60  37101.  0.2695    1.32    2.35
    4.50  36295.  0.2755    1.34    2.42
    4.40  35488.  0.2818    1.39    2.50
    4.30  34682.  0.2883    1.41    2.57
    4.20  33875.  0.2952    1.46    2.65
    4.10  33068.  0.3024    1.51    2.73
    4.00  32262.  0.3100    1.56    2.81
    3.90  31455.  0.3179    1.64    2.89
    3.80  30649.  0.3263    1.73    2.97
    3.70  29842.  0.3351    1.84    3.06
    3.60  29036.  0.3444    1.96    3.14
    3.50  28229.  0.3542    2.07    3.22
    3.40  27423.  0.3647    2.18    3.26
    3.30  26616.  0.3757    2.30    3.31
    3.20  25809.  0.3875    2.42    3.33
    3.10  25003.  0.4000    2.55    3.38
    3.00  24196.  0.4133    2.71    3.38
    2.90  23390.  0.4275    2.84    3.42
    2.80  22583.  0.4428    3.03    3.40
    2.70  21777.  0.4592    3.19    3.38
    2.60  20970.  0.4769    3.36    3.33
    2.50  20164.  0.4959    3.53    3.26
    2.40  19357.  0.5166    3.63    3.15
    2.30  18551.  0.5391    3.68    3.05
    2.20  17744.  0.5636    3.68    2.98
    2.10  16937.  0.5904    3.65    2.94
    2.00  16131.  0.6199    3.55    2.93
    1.90  15324.  0.6526    3.50    2.99
    1.80  14518.  0.6888    3.43    3.05
    1.70  13711.  0.7293    3.41    3.08
    1.60  12905.  0.7749    3.42    3.14
    1.50  12098.  0.8266    3.47    3.18
    1.40  11292.  0.8856    3.43    3.22
    1.30  10485.  0.9537    3.38    3.31
    1.20   9679.   1.033    3.19    3.54
    1.10   8872.   1.127    2.95    3.87
    1.00   8065.   1.240    2.69    4.43
    0.90   7259.   1.378    2.56    5.02
    0.80   6452.   1.550    2.52    5.77
    0.70   5646.   1.771    2.56    6.83
    0.60   4839.   2.066    2.62    8.19
    0.50   4033.   2.480    2.72    9.73
    0.40   3226.   3.100    1.38   11.90
    0.36   2904.   3.440    1.57   13.32
    0.32   2581.   3.875    1.79   15.08
    0.28   2258.   4.428    2.13   17.35
    0.24   1936.   5.166    2.82   20.32
    0.20   1613.   6.199    3.90   24.30
    0.16   1290.   7.749    5.77   30.03
    0.12    968.   10.33    9.51   38.97
    0.10    806.   12.40   12.83   45.89
