;UO 
;UO VC.ASC: Values of n and k for polycrystalline vanadium carbide
;UO from various references in HOCII (pg. 306). Reference is 6.
;UO 
;UO Copyright (c) 1995 by the Optical Society of America.  Data
;UO from HANDBOOK OF OPTICAL CONSTANTS IN SOLIDS II edited by Edward D.
;UO Palik. Copyright (c) 1991 by Academic Press, Inc. Reproduced by
;UO permission of the publisher.
;UO ------------------------------------------------------------
;UO   eV   cm-1      um         n          k
;UO ------------------------------------------------------------
;N  5
;L  Energy[eV]  Wavelength[cm-1]  Wavelength[um]  n  k  
    39.9  321810 0.03107 8.37E-1 6.42E-2
    39.0  314550 0.03179 8.30E-1 5.89E-2
    38.0  306490 0.03263 8.14E-1 5.76E-2
    37.0  298420 0.03351 7.95E-1 6.33E-2
    36.0  290360 0.03444 7.76E-1 7.27E-2
    35.0  282290 0.03542 7.60E-1 8.57E-2
    34.0  274230 0.03647 7.42E-1 9.82E-2
    33.0  266160 0.03757 7.25E-1 1.13E-1
    32.0  258100 0.03875 7.06E-1 1.29E-1
    31.0  250030 0.04000 6.87E-1 1.52E-1
    30.0  241970 0.04133 6.68E-1 1.72E-1
    29.0  233900 0.04275 6.45E-1 1.99E-1
    28.0  225830 0.04428 6.23E-1 2.31E-1
    27.0  217770 0.04592 6.01E-1 2.68E-1
    26.0  209700 0.04769 5.82E-1 3.16E-1
    25.0  201640 0.04959 5.64E-1 3.71E-1
    24.0  193570 0.05166 5.60E-1 4.33E-1
    23.0  185510 0.05391 5.61E-1 4.99E-1
    22.0  177440 0.05636 5.78E-1 5.68E-1
    21.0  169380 0.05904 6.06E-1 6.33E-1
    20.0  161310 0.06199 6.37E-1 6.86E-1
    19.0  153240 0.06526 6.65E-1 7.30E-1
    18.0  145180 0.06888 6.89E-1 7.99E-1
    17.0  137110 0.07293 7.28E-1 8.72E-1
    16.0  129050 0.07749 8.03E-1 9.33E-1
    15.0  120980 0.08266 8.57E-1 9.58E-1
    14.0  112920 0.08856 9.04E-1 9.96E-1
    13.0  104850 0.09537 9.56E-1 1.00E+0
    12.0   96785  0.1033 9.17E-1 0.99E+0
    11.5   92753  0.1078 8.58E-1 1.04E+0
    11.0   88720  0.1127 8.20E-1 1.14E+0
    10.5   84688  0.1181 8.27E-1 1.28E+0
    10.0   80655  0.1240 8.65E-1 1.41E+0
     9.5   76622  0.1305 9.58E-1 1.51E+0
     9.0   72589  0.1378 1.07E+0 1.59E+0
     8.5   68557  0.1459 1.13E+0 1.64E+0
     8.0   64524  0.1550 1.22E+0 1.73E+0
     7.5   60491  0.1653 1.32E+0 1.83E+0
     7.0   56458  0.1771 1.42E+0 1.92E+0
     6.5   52426  0.1907 1.62E+0 1.97E+0
     6.0   48393  0.2066 1.74E+0 2.00E+0
     5.5   44360  0.2254 1.86E+0 2.04E+0
     5.0   40327  0.2480 2.04E+0 2.13E+0
     4.5   36295  0.2755 2.27E+0 2.18E+0
     4.0   32262  0.3100 2.47E+0 2.15E+0
     3.5   28229  0.3542 2.59E+0 2.12E+0
     3.0   24196  0.4133 2.77E+0 2.16E+0
     2.5   20164  0.4959 2.84E+0 2.21E+0
     2.0   16131  0.6199 3.01E+0 2.51E+0
     1.5   12098  0.8266 3.37E+0 2.88E+0
     1.0  8065.5  1.2399 3.66E+0 3.42E+0
     0.5  4032.7  2.4797 4.86E+0 5.34E+0
