;UO 
;UO W.ASC: Values of n and k for polycrystalline tungsten from various
;UO references in HOCI (pg. 360).  References are 26, 36, 37.
;UO 
;UO Copyright (c) 1995 the Optical Society of America.  Contains data
;UO from HANDBOOK OF OPTICAL CONSTANTS IN SOLIDS edited by Edward D.
;UO Palik. Copyright (c) 1985 by Academic Press, Inc. Reproduced by
;UO permission of the publisher.
;UO -------------------------------------------------------------- 
;UO      eV             cm-1        um           n                 k
;UO --------------------------------------------------------------
;N  5
;L  Energy[eV]  Wavelength[cm-1]  Wavelength[um]  n  k  
   2000. 16131000. 0.0006199 0.999560 4.00E-4
   1952. 15744000. 0.0006351 0.999637 4.34E-4
   1905. 15365000. 0.0006508 0.999721 4.71E-4
   1860. 15002000. 0.0006665 0.999810 3.44E-4
   1815. 14639000. 0.0006831 0.999908 3.69E-4
   1772. 14292000. 0.0006997 0.999656 1.31E-4
   1730. 13953000. 0.0007166 0.999536 1.42E-4
   1688. 13615000. 0.0007345 0.999458 1.53E-4
   1648. 13292000. 0.0007523 0.999390 1.65E-4
   1609. 12977000. 0.0007705 0.999330 1.78E-4
   1570. 12663000. 0.0007897 0.999273 1.92E-4
   1533. 12364000. 0.0008088 0.999218 2.07E-4
   1496. 12066000. 0.0008287 0.999161 2.23E-4
   1460. 11776000. 0.0008492 0.999106 2.41E-4
   1426. 11501000. 0.0008694 0.999051 2.59E-4
   1392. 11227000. 0.0008906 0.99899 2.79E-4
   1358. 10953000. 0.0009129 0.99893 3.01E-4
   1326. 10695000. 0.0009350 0.99887 3.24E-4
   1294. 10437000. 0.0009581 0.99881 3.50E-4
   1263. 10187000. 0.0009816 0.99874 3.77E-4
   1233. 9944800. 0.001005 0.99868 4.05E-4
   1204. 9710900. 0.001030 0.99861 4.35E-4
   1175. 9477000. 0.001055 0.99854 4.68E-4
   1147. 9251100. 0.001081 0.99846 5.03E-4
   1119. 9025300. 0.001108 0.99838 5.41E-4
   1093. 8815600. 0.001134 0.99831 5.81E-4
   1067. 8605900. 0.001162 0.99822 6.24E-4
   1041. 8396200. 0.001191 0.99814 6.72E-4
   1016. 8194500. 0.001220 0.99805 7.22E-4
    992. 8001000. 0.001250 0.99796 7.74E-4
    968. 7807400. 0.001281 0.99786 8.31E-4
    945. 7621900. 0.001312 0.99777 8.90E-4
    923. 7444500. 0.001343 0.99767 9.53E-4
    901. 7267000. 0.001376 0.99757 1.02E-3
    879. 7089600. 0.001410 0.99746 1.09E-3
    858. 6920200. 0.001445 0.99735 1.17E-3
    838. 6758900. 0.001479 0.99724 1.25E-3
    818. 6597600. 0.001516 0.99712 1.34E-3
    798. 6436300. 0.001554 0.99700 1.44E-3
    779. 6283000. 0.001592 0.99688 1.54E-3
    760. 6129800. 0.001631 0.99678 1.65E-3
    742. 5984600. 0.001671 0.99663 1.76E-3
    725. 5847500. 0.001710 0.99651 1.87E-3
    707. 5702300. 0.001754 0.99637 2.00E-3
    690. 5565200. 0.001797 0.99625 2.13E-3
    674. 5436100. 0.001839 0.99611 2.26E-3
    658. 5307100. 0.001884 0.99598 2.41E-3
    642. 5178100. 0.001931 0.99586 2.57E-3
    627. 5057100. 0.001977 0.99574 2.71E-3
    612. 4936100. 0.002026 0.99561 2.84E-3
    597. 4815100. 0.002077 0.99547 2.98E-3
    583. 4702200. 0.002127 0.99531 3.13E-3
    569. 4589300. 0.002179 0.99513 3.29E-3
    555. 4476400. 0.002234 0.99494 3.49E-3
    542. 4371500. 0.002287 0.99478 3.70E-3
    529. 4266600. 0.002344 0.99462 3.91E-3
    516. 4161800. 0.002403 0.99446 4.14E-3
    504. 4065000. 0.002460 0.99430 4.35E-3
    492. 3968200. 0.002520 0.99414 4.58E-3
    480. 3871400. 0.002583 0.99397 4.83E-3
    469. 3782700. 0.002643 0.99382 5.07E-3
    458. 3694000. 0.002707 0.99369 5.34E-3
    447. 3605300. 0.002774 0.99357 5.57E-3
    436. 3516600. 0.002844 0.99343 5.78E-3
    426. 3435900. 0.002910 0.99326 5.97E-3
    415. 3347200. 0.002987 0.99305 6.20E-3
    406. 3274600. 0.003054 0.99284 6.40E-3
    396. 3193900. 0.003131 0.99258 6.63E-3
    386. 3113300. 0.003212 0.99229 6.95E-3
    377. 3040700. 0.003289 0.99203 7.26E-3
    368. 2968100. 0.003369 0.99177 7.59E-3
    359. 2895500. 0.003453 0.99150 7.95E-3
    351. 2831000. 0.003532 0.99126 8.29E-3
    342. 2758400. 0.003625 0.99098 8.70E-3
    334. 2693900. 0.003712 0.99072 9.10E-3
    326. 2629400. 0.003803 0.99046 9.52E-3
    318. 2564800. 0.003899 0.99020 9.97E-3
    311. 2508400. 0.003986  0.9900 1.04E-2
    303. 2443800. 0.004092  0.9897 1.09E-2
    296. 2387400. 0.004188  0.9895 1.14E-2
    289. 2330900. 0.004290  0.9893 1.19E-2
    282. 2274500. 0.004396  0.9891 1.25E-2
    275. 2218000. 0.004508  0.9890 1.30E-2
    269. 2169600. 0.004609  0.9888 1.34E-2
    262. 2113200. 0.004732  0.9887 1.38E-2
    256. 2064800. 0.004843  0.9884 1.42E-2
    250. 2016400. 0.004959  0.9882 1.46E-2
    244. 1968000. 0.005081  0.9879 1.50E-2
    238. 1919600. 0.005209  0.9876 1.55E-2
    232. 1871200. 0.005344  0.9874 1.60E-2
    227. 1830900. 0.005462  0.9871 1.64E-2
    221. 1782500. 0.005610  0.9867 1.70E-2
    216. 1742100. 0.005740  0.9864 1.75E-2
    211. 1701800. 0.005876  0.9861 1.80E-2
    206. 1661500. 0.006018  0.9858 1.84E-2
    201. 1621200. 0.006168  0.9855 1.89E-2
    196. 1580800. 0.006325  0.9852 1.94E-2
    191. 1540500. 0.006491  0.9848 1.99E-2
    187. 1508200. 0.006630  0.9845 2.02E-2
    182. 1467900. 0.006812  0.9840 2.05E-2
    178. 1435700. 0.006965  0.9835 2.09E-2
    174. 1403400. 0.007125  0.9829 2.12E-2
    170. 1371100. 0.007293  0.9823 2.15E-2
    166. 1338900. 0.007469  0.9816 2.19E-2
    162. 1306600. 0.007653  0.9808 2.23E-2
    158. 1274300. 0.007847  0.9800 2.26E-2
    154. 1242100. 0.008051  0.9791 2.30E-2
    150. 1209800. 0.008265  0.9782 2.34E-2
    147. 1185600. 0.008434  0.9774 2.39E-2
    143. 1153400. 0.008670  0.9760 2.48E-2
    140. 1129200. 0.008856  0.9745 2.56E-2
    136. 1096900. 0.009116  0.9717 2.67E-2
    133. 1072700. 0.009322  0.9690 2.75E-2
    130. 1048500. 0.009537  0.9661 2.85E-2
    127. 1024300. 0.009762  0.9647 2.94E-2
    124. 1000100. 0.009998  0.9637 3.03E-2
    121. 975930. 0.01025  0.9627 3.13E-2
    118. 951730. 0.01051  0.9612 3.22E-2
    115. 927530. 0.01078  0.9594 3.33E-2
    112. 903340. 0.01107  0.9573 3.44E-2
    110. 887210. 0.01127  0.9558 3.51E-2
    107. 863010. 0.01159  0.9532 3.63E-2
    104. 838810. 0.01192  0.9502 3.76E-2
    102. 822680. 0.01215  0.9479 3.85E-2
    100. 806550. 0.01240  0.9452 3.95E-2
    47.0 379080. 0.02638   0.774   0.195
    46.0 371010. 0.02695   0.762   0.205
    45.0 362950. 0.02755   0.750   0.225
    44.0 354880. 0.02818   0.746   0.245
    43.0 346820. 0.02883   0.744   0.274
    42.0 338750. 0.02952   0.756   0.304
    41.0 330690. 0.03024   0.778   0.319
    40.0 322620. 0.03100   0.797   0.328
    39.0 314550. 0.03179   0.814   0.330
    38.0 306490. 0.03263   0.826   0.330
    37.0 298420. 0.03351   0.837   0.328
    36.0 290360. 0.03444   0.846   0.320
    35.0 282290. 0.Q3542   0.848   0.306
    34.5 278260. 0.03594   0.844   0.298
    34.0 274230. 0.03647   0.838   0.291
    33.5 270190. 0.03701   0.829   0.285
    33.0 266160. 0.03757   0.816   0.278
    32.5 262130. 0.03815   0.797   0.286
    32.0 258100. 0.03875   0.791   0.295
    31.5 254060. 0.03936   0.788   0.294
    31.0 250030. 0.04000   0.778   0.293
    30.5 246000. 0.04065   0.765   0.292
    30.0 241970. 0.04133   0.750   0.295
   29.75 239950. 0.04168   0.742   0.296
    29.5 237930. 0.04203   0.733   0.297
   29.25 235920. 0.04239   0.724   0.298
    29.0 233900. 0.04275   0.712   0.301
   28.75 231880. 0.04313   0.700   0.306
    28.5 229870. 0.04350   0.690   0.310
   28.25 227860. 0.04389   0.679   0.318
    28.0 225830. 0.04428   0.671   0.322
   27.75 223820. 0.04468   0.656   0.328
    27.5 221800. 0.04509   0.643   0.336
   27.25 219780. 0.04550   0.631   0.346
    27.0 217770. 0.04592   0.619   0.357
    26.8 216160. 0.04626   0.610   0.365
    26.6 214540. 0.04661   0.600   0.375
    26.4 212930. 0.04696   0.591   0.383
    26.2 211320. 0.04732   0.580   0.394
    26.0 209700. 0.04769   0.571   0.404
    25.8 208090. 0.04806   0.560   0.415
    25.6 206480. 0.04843   0.548   0.429
    25.4 204860. 0.04881   0.537   0.444
    25.2 203250. 0.04920   0.528   0.461
    25.0 201640. 0.04959   0.521   0.476
    24.8 200020. 0.04999   0.511   0.494
    24.6 198410. 0.05040   0.503   0.513
    24.4 196800. 0.05081   0.497   0.534
    24.2 195190. 0.05123   0.491   0.554
    24.0 193570. 0.05166   0.487   0.575
    23.8 191960. 0.05209   0.483   0.598
    23.6 190350. 0.05254   0.484   0.621
    23.4 188730. 0.05299   0.486   0.643
    23.2 187120. 0.05344   0.490   0.663
    23.0 185510. 0.05391   0.494   0.679
    22.8 183890. 0.05438   0.494   0.695
    22.6 182280. 0.05486   0.493   0.712
    22.4 180670. 0.05535   0.492   0.730
    22.2 179050. 0.05585   0.491   0.751
    22.0 177440. 0.05636   0.491   0.773
    21.8 175830. 0.05687   0.492   0.796
    21.6 174210. 0.05740   0.496   0.819
    21.4 172600. 0.05794   0.499   0.842
    21.2 170990. 0.05848   0.503   0.866
    21.0 169380. 0.05904   0.508   0.892
    20.8 167760. 0.05961   0.517   0.918
    20.6 166150. 0.06019   0.525   0.943
    20.4 164540. 0.06078   0.537   0.969
    20.2 162920. 0.06138   0.549   0.994
    20.0 161310. 0.06199   0.563    1.02
    19.8 159700. 0.06262   0.579    1.05
    19.6 158080. 0.06326   0.599    1.07
    19.4 156470. 0.06391   0.621    1.09
    19.2 154860. 0.06458   0.642    1.11
    19.0 153240. 0.06526   0.665    1.13
    18.8 151630. 0.06595   0.688    1.15
    18.6 150020. 0.06666   0.712    1.16
    18.4 148410. 0.06738   0.738    1.18
    18.2 146790. 0.06812   0.766    1.19
    18.0 145180. 0.06888   0.796    1.20
    17.8 143570. 0.06965   0.822    1.20
    17.6 141950. 0.07045   0.847    1.21
    17.4 140340. 0.07126   0.874    1.21
    17.2 138730. 0.07208   0.900    1.20
    17.0 137110. 0.07293   0.922    1.20
    16.8 135500. 0.07380   0.944    1.19
    16.6 133890. 0.07469   0.959    1.18
    16.4 132270. 0.07560   0.973    1.17
    16.2 130660. 0.07653   0.980    1.15
    16.0 129050. 0.07749   0.981    1.14
    15.8 127430. 0.07847   0.976    1.13
    15.6 125820. 0.07948   0.966    1.12
    15.4 124210. 0.08051   0.951    1.12
    15.2 122600. 0.08157   0.933    1.13
    15.0 120980. 0.08266   0.917    1.14
    14.8 119370. 0.08377   0.904    1.17
    14.6 117760. 0.08492   0.900    1.20
    14.4 116140. 0.08610   0.901    1.23
    14.2 114530. 0.08731   0.906    1.25
    14.0 112920. 0.08856   0.913    1.28
    13.8 111300. 0.08984   0.923    1.32
    13.6 109690. 0.09117   0.941    1.35
    13.4 108080. 0.09253   0.962    1.37
    13.2 106460. 0.09393   0.984    1.40
    13.0 104850. 0.09537    1.01    1.42
    12.8 103240. 0.09686    1.04    1.44
    12.6 101630. 0.09840    1.07    1.46
    12.4 100010. 0.09999    1.10    1.47
    12.2  98400.  0.1016    1.13    1.48
    12.0  96790.  0.1033    1.16    1.48
    11.9  95980.  0.1042    1.18    1.48
    11.8  95170.  0.1051    1.20    1.48
    11.7  94370.  0.1060    1.21    1.48
    11.6  93560.  0.1069    1.22    1.48
    11.5  92750.  0.1078    1.24    1.47
    11.4  91950.  0.1088    1.25    1.46
    11.3  91140.  0.1097    1.26    1.45
    11.2  90330.  0.1107    1.27    1.44
    11.1  89530.  0.1117    1.28    1.43
    11.0  88720.  0.1127    1.28    1.42
    10.9  87910.  0.1137    1.29    1.41
    10.8  87110.  0.1148    1.29    1.39
    10.7  86300.  0.1159    1.28    1.38
    10.6  85490.  0.1170    1.28    1.36
    10.5  84690.  0.1181    1.26    1.34
    10.4  83880.  0.1192    1.24    1.33
    10.3  83070.  0.1204    1.22    1.33
    10.2  82270.  0.1216    1.19    1.33
    10.1  81460.  0.1228    1.16    1.33
    10.0  80655.  0.1240    1.13    1.34
     9.9  79850.  0.1252    1.11    1.36
     9.8  79040.  0.1265    1.09    1.38
     9.7  78240.  0.1278    1.07    1.41
     9.6  77430.  0.1291    1.05    1.44
     9.5  76620.  0.1305    1.04    1.47
     9.4  75820.  0.1319    1.03    1.50
     9.3  75010.  0.1333    1.03    1.52
     9.2  74200.  0.1348    1.02    1.55
     9.1  73400.  0.1362    1.02    1.57
     9.0  72590.  0.1378    1.01    1.60
     8.9  71780.  0.1393    1.02    1.63
     8.8  70980.  0.1409    1.01    1.65
     8.7  70170.  0.1425   0.999    1.67
     8.6  69360.  0.1442   0.986    1.70
     8.5  68560.  0.1459   0.973    1.73
     8.4  67750.  0.1476   0.956    1.76
     8.3  66940.  0.1494   0.943    1.81
     8.2  66140.  0.1512   0.935    1.86
     8.1  65330.  0.1531   0.935    1.91
     8.0  64520.  0.1550   0.937    1.95
     7.9  63720.  0.1569   0.932    2.00
     7.8  62910.  0.1590   0.930    2.06
     7.7  62100.  0.1610   0.937    2.12
     7.6  61300.  0.1631   0.950    2.18
     7.5  60490.  0.1653   0.964    2.24
     7.4  59680.  0.1675   0.979    2.29
     7.3  58880.  0.1698   0.993    2.36
     7.2  58070.  0.1722    1.01    2.43
     7.1  57270.  0.1746    1.04    2.49
     7.0  56460.  0.1771    1.06    2.56
     6.9  55650.  0.1797    1.09    2.63
     6.8  54850.  0.1823    1.12    2.70
     6.7  54040.  0.1851    1.16    2.78
     6.6  53230.  0.1879    1.21    2.87
     6.5  52430.  0.1907    1.26    2.95
     6.4  51620.  0.1937    1.31    3.04
     6.3  50810.  0.1968    1.38    3.14
     6.2  50010.  0.2000    1.47    3.24
     6.1  49200.  0.2033    1.58    3.33
     6.0  48390.  0.2066    1.70    3.42
     5.9  47590.  0.2101    1.83    3.52
     5.8  46780.  0.2138    2.00    3.61
     5.7  45970.  0.2175    2.20    3.67
     5.6  45170.  0.2214    2.43    3.70
     5.5  44360.  0.2254    2.68    3.68
     5.4  43550.  0.2296    2.92    3.58
     5.3  42750.  0.2339    3.11    3.43
     5.2  41940.  0.2384    3.27    3.27
     5.1  41130.  0.2431    3.38    3.05
     5.0  40330.  0.2480    3.40    2.85
     4.9  39520.  0.2530    3.37    2.68
     4.8  38710.  0.2583    3.33    2.57
     4.7  37910.  0.2638    3.29    2.48
     4.6  37100.  0.2695    3.24    2.41
     4.5  36290.  0.2755    3.19    2.35
     4.4  35490.  0.2818    3.13    2.32
     4.3  34680.  0.2883    3.07    2.31
     4.2  33880.  0.2952    3.01    2.33
     4.1  33070.  0.3024    2.97    2.37
     4.0  32260.  0.3100    2.95    2.43
    3.95  31860.  0.3139    2.95    2.46
     3.9  31460.  0.3179    2.96    2.50
    3.85  31050.  0.3220    2.98    2.53
     3.8  30650.  0.3263    2.99    2.56
    3.75  30250.  0.3306    3.02    2.60
     3.7  29840.  0.3351    3.05    2.62
    3.65  29440.  0.3397    3.09    2.65
     3.6  29040.  0.3444    3.13    2.67
    3.55  28630.  0.3493    3.18    2.69
     3.5  28230.  0.3542    3.24    2.70
    3.45  27830.  0.3594    3.32    2.70
     3.4  27420.  0.3647    3.39    2.66
    3.35  27020.  0.3701    3.43    2.60
     3.3  26620.  0.3757    3.45    2.55
    3.25  26210.  0.3815    3.45    2.49
     3.2  25810.  0.3875    3.43    2.45
    3.15  25410.  0.3936    3.41    2.43
     3.1  25000.  0.4000    3.39    2.41
    3.05  24600.  0.4065    3.37    2.42
     3.0  24200.  0.4133    3.35    2.42
    2.95  23790.  0.4203    3.33    2.43
     2.9  23390.  0.4275    3.32    2.45
    2.85  22990.  0.4350    3.31    2.47
     2.8  22580.  0.4428    3.30    2.49
    2.75  22180.  0.4509    3.31    2.53
     2.7  21780.  0.4592    3.31    2.55
    2.65  21370.  0.4679    3.32    2.59
     2.6  20970.  0.4769    3.34    2.62
    2.55  20570.  0.4862    3.35    2.64
     2.5  20160.  0.4959    3.38    2.68
    2.45  19760.  0.5061    3.42    2.71
     2.4  19360.  0.5166    3.45    2.72
    2.35  18950.  0.5276    3.48    2.72
     2.3  18550.  0.5391    3.50    2.72
    2.25  18150.  0.5510    3.50    2.73
     2.2  17740.  0.5636    3.49    2.75
    2.15  17340.  0.5767    3.51    2.81
     2.1  16940.  0.5904    3.54    2.84
    2.05  16530.  0.6048    3.57    2.86
     2.0  16130.  0.6199    3.60    2.89
    1.95  15730.  0.6358    3.65    2.92
     1.9  15320.  0.6526    3.70    2.94
    1.85  14920.  0.6702    3.76    2.95
     1.8  14520.  0.6888    3.82    2.91
    1.75  14110.  0.7085    3.85    2.86
     1.7  13710.  0.7293    3.84    2.78
    1.65  13310.  0.7514    3.78    2.72
     1.6  12900.  0.7749    3.67    2.68
    1.55  12500.  0.7999    3.56    2.73
     1.5  12100.  0.8266    3.48    2.79
    1.45  11690.  0.8551    3.38    2.85
     1.4  11290.  0.8856    3.29    2.96
    1.35  10900.  0.9184    3.20    3.07
     1.3  10490.  0.9537    3.12    3.24
    1.25  10080.  0.9919    3.05    3.39
     1.2   9679.   1.033    3.00    3.64
    1.15   9275.   1.078    3.02    3.83
     1.1   8872.   1.127    3.05    4.04
    1.05   8469.   1.181    3.11    4.19
     1.0   8065.   1.240    3.14    4.32
    0.98   7904.   1.265    3.15    4.36
    0.96   7743.   1.291    3.15    4.41
    0.94   7582.   1.319    3.15    4.43
    0.92   7420.   1.348    3.14    4.45
    0.90   7259.   1.378    3.11    4.44
    0.88   7098.   1.409    3.05    4.42
    0.87   7017.   1.425    3.00    4.39
    0.86   6936.   1.442    2.92    4.37
    0.85   6856.   1.459    2.80    4.33
    0.84   6775.   1.476    2.62    4.37
    0.83   6694.   1.494    2.47    4.47
    0.82   6614.   1.512    2.36    4.61
    0.80   6452.   1.550    2.22    4.85
    0.78   6291.   1.590    2.12    5.05
    0.76   6131.   1.630    1.97    5.27
    0.74   5969.   1.675    1.83    5.52
    0.72   5807.   1.722    1.70    5.81
    0.70   5646.   1.771    1.59    6.13
    0.68   5485.   1.823    1.52    6.45
    0.66   5323.   1.879    1.45    6.78
    0.64   5162.   1.937    1.36    7.14
    0.62   5001.   2.000    1.28    7.52
    0.60   4839.   2.066    1.21    7.96
    0.58   4678.   2.138    1.18    8.44
    0.56   4517.   2.214    1.20    8.94
    0.54   4355.   2.296    1.23    9.45
    0.52   4194.   2.384    1.30    9.98
    0.50   4033.   2.480    1.40    10.5
    0.48   3817.   2.583    1.54    11.1
    0.46   3710.   2.695    1.69    11.6
    0.44   3549.   2.818    1.82    12.1
    0.42   3388.   2.952    1.92    12.6
    0.40   3226.   3.100    1.94    13.2
    0.38   3065.   3.263    1.86    13.9
    0.36   2904.   3.444    1.82    14.7
    0.34   2742.   3.647    1.71    15.7
    0.32   2581.   3.875    1.72    16.9
    0.30   2420.   4.133    1.83    18.3
    0.25   2016.   4.959    2.56    22.4
    0.20   1613.   6.199    3.87    28.3
    0.18   1452.   6.888    4.72    31.5
    0.16   1290.   7.749    5.92    35.3
    0.14   1129.   8.856    7.58    40.2
    0.12   967.9   10.33    10.1    46.4
    0.10   806.5   12.40    14.1    54.7
    0.09   725.9   13.78    17.0    60.0
    0.08   645.2   15.50    20.9    66.3
    0.07   564.6   17.71    26.5    73.8
    0.06   483.9   20.66    34.5    82.9
    0.05   403.3   24.80    46.5    93.7
