; Refractive index spectrum for Si by Palik
;
; Handbook of Optical Constants of Solids, Edward D. Palik, ed. Academic Press, Boston, 1985 [<a href="http://books.google.com/books?id=rxuG1kXvSqgC">link</a>]
;
; lambda/um    n     k
6.199E-4 0.9999040 3.19E-5
6.351E-4 0.9991310 3.46E-5
6.508E-4 0.9999222 3.76E-5
6.665E-4 0.9999318 4.08E-5
6.831E-4 0.9999113 3.93E-6
6.997E-4 0.999885  4.32E-6
7.166E-4 0.999874  4.74E-6
7.345E-4 0.999863  5.20E-6
7.523E-4 0.999854  5.70E-6
7.705E-4 0.999844  6.24E-6
7.897E-4 0.999834  6.85E-6
8.087E-4 0.999824  7.49E-6
8.287E-4 0.999814  8.22E-6
8.492E-4 0.999803  8.99E-6
8.694E-4 0.999792  9.81E-6
8.906E-4 0.999781  1.07E-5
9.129E-4 0.999769  1.17E-5
9.350E-4 0.999756  1.28E-5
9.581E-4 0.999743  1.40E-5
9.816E-4 0.999729  1.53E-5
10.05E-4 0.999715  1.67E-5
10.30E-4 0.999700  1.83E-5
10.55E-4 0.999684  2.00E-5
10.81E-4 0.999667  2.18E-5
11.08E-4 0.999649  2.39E-5
11.34E-4 0.999631  2.60E-5
11.62E-4 0.999612  2.84E-5
11.91E-4 0.999591  3.10E-5
12.20E-4 0.999570  3.39E-5
12.50E-4 0.999548  3.70E-5
12.81E-4 0.999524  4.04E-5
13.12E-4 0.999500  4.41E-5
13.43E-4 0.999474  4.80E-5
13.76E-4 0.999447  5.24E-5
14.10E-4 0.999418  5.73E-5
14.45E-4 0.999388  6.25E-5
14.79E-4 0.999358  6.80E-5
15.16E-4 0.999325  7.42E-5
15.54E-4 0.999289  8.11E-5
15.92E-4 0.999253  8.84E-5
16.31E-4 0.999214  9.66E-5
16.71E-4 0.999174  1.05E-4
17.10E-4 0.999134  1.14E-4
17.54E-4 0.999088  1.25E-4
17.97E-4 0.999041  1.36E-4
18.39E-4 0.99899   1.48E-4
18.84E-4 0.99894   1.61E-4
19.31E-4 0.99889   1.76E-4
19.77E-4 0.99883   1.91E-4
20.26E-4 0.99878   2.08E-4
20.77E-4 0.99871   2.27E-4
21.27E-4 0.99865   2.47E-4
21.79E-4 0.99858 2.69E-4
22.34E-4 0.99851 2.94E-4
22.87E-4 0.99843 3.19E-4
23.44E-4 0.99836 3.47E-4
24.03E-4 0.99827 3.79E-4
24.60E-4 0.99819 4.11E-4
25.20E-4 0.99810 4.47E-4
25.83E-4 0.99800 4.87E-4
26.43E-4 0.99791 5.27E-4
27.07E-4 0.99781 5.12E-4
27.74E-4 0.99770 6.22E-4
28.44E-4 0.99759 6.77E-4
29.10E-4 0.99748 7.34E-4
29.87E-4 0.99735 8.01E-4
30.54E-4 0.99723 8.63E-4
31.31E-4 0.99710 9.39E-4
32.12E-4 0.99695 1.02E-3
32.89E-4 0.99682 1.11E-3
33.69E-4 0.99667 1.20E-3
34.53E-4 0.99651 1.31E-3
35.32E-4 0.99636 1.41E-3
36.25E-4 0.99619 1.53E-3
37.12E-4 0.99602 1.66E-3
38.03E-4 0.99585 1.80E-3
38.99E-4 0.99566 1.95E-3
39.86E-4 0.99549 2.10E-3
40.92E-4 0.99528 2.29E-3
41.88E-4 0.99509 2.47E-3
42.90E-4 0.99489 2.67E-3
43.96E-4 0.99468 2.88E-3
45.08E-4 0.99446 3.13E-3
46.09E-4 0.99427 3.36E-3
47.32E-4 0.99403 3.65E-3
48.43E-4 0.99382 3.93E-3
49.59E-4 0.99361 4.23E-3
50.81E-4 0.99339 4.57E-3
52.09E-4 0.99318 4.94E-3
53.44E-4 0.99296 5.34E-3
54.62E-4 0.99277 5.70E-3
56.10E-4 0.99254 6.19E-3
57.40E-4 0.99236 6.63E-3
58.76E-4 0.99219 7.12E-3
60.18E-4 0.99206 7.63E-3
61.68E-4 0.99192 8.18E-3
63.25E-4 0.99179 8.79E-3
64.91E-4 0.99169 9.46E-3
66.30E-4 0.99167 1.00E-2
68.12E-4 0.99164 1.07E-2
69.65E-4 0.99164 1.14E-2
71.25E-4 0.99167 1.21E-2
72.93E-4 0.99176 1.28E-2
74.69E-4 0.99235 1.45E-2
76.53E-4 0.99235 1.45E-2
78.47E-4 0.99287 1.52E-2
80.51E-4 0.99340 1.57E-2
82.66E-4 0.99384 1.62E-2
84.34E-4 0.99415 1.66E-2
86.70E-4 0.99460 1.72E-2
88.56E-4 0.99496 1.77E-2
91.16E-4 0.99549 1.83E-2
93.22E-4 0.99594 1.88E-2
95.37E-4 0.99645 1.94E-2
97.62E-4 0.99705 2.00E-2
99.98E-4 0.99773 2.06E-2
102.5E-4 0.99856 2.12E-2
105.1E-4 0.99958 2.19E-2
107.8E-4 1.0008 2.26E-2
110.7E-4 1.0024 2.33E-2
112.7E-4 1.0039 2.39E-2
115.9E-4 1.0070 2.47E-2
119.2E-4 1.0132 2.56E-2
121.6E-4 1.0241 2.62E-2
122.0E-4 1.025 2.4E-2
123.0E-4 1.030 5.0E-3
124.0E-4 1.032 1.54E-3
125E-4 1.034 1.0E-3
126E-4 1.034 1.02E-3
128E-4 1.034 1.09E-3
130E-4 1.03 1.13E-3
132E-4 1.022 1.2E-3
136E-4 1.008 1.3E-3
140E-4 1.000 1.43E-3
150E-4 0.993 1.78E-3
160E-4 0.991 2.15E-3
170E-4 0.988 2.54E-3
180E-4 0.985 2.97E-3
190E-4 0.982 3.43E-3
200E-4 0.978 3.93E-3
210E-4 0.976 4.43E-3
220E-4 0.972 5.0E-3
230E-4 0.968 5.53E-3
240E-4 0.964 6.1E-3
250E-4 0.960 6.7E-3
260E-4 0.956 7.3E-3
270E-4 0.952 7.85E-3
280E-4 0.947 8.4E-3
290E-4 0.942 9.0E-3
300E-4 0.937 9.5E-3
310E-4 0.930 1.0E-2
320E-4 0.925 1.04E-2
330E-4 0.918 1.0E-2
340E-4 0.913 1.13E-2
350E-4 0.906 1.17E-2
360E-4 0.899 1.21E-2
370E-4 0.893 1.24E-2
380E-4 0.885 1.28E-2
390E-4 0.877 1.32E-2
400E-4 0.869 1.35E-2
410E-4 0.860 1.38E-2
420E-4 0.853 1.42E-2
430E-4 0.843 1.47E-2
440E-4 0.834 1.52E-2
450E-4 0.824 1.58E-2
460E-4 0.814 1.68E-2
470E-4 0.803 1.78E-2
480E-4 0.792 1.92E-2
490E-4 0.778 2.05E-2
500E-4 0.766 2.23E-2
510E-4 0.752 2.43E-2
520E-4 0.737 2.64E-2
530E-4 0.722 2.92E-2
540E-4 0.706 3.25E-2
550E-4 0.691 3.65E-2
560E-4 0.675 4.05E-2
570E-4 0.659 4.55E-2
580E-4 0.644 5.1E-2
590E-4 0.627 5.8E-2
600E-4 0.61 6.5E-2
610E-4 0.59 7.4E-2
620E-4 0.567 8.35E-2
620.0E-4 0.569 0.122
630E-4 0.549 9.3E-2
635.8E-4 0.542 0.140
640E-4 0.53 0.10
650E-4 0.531 0.113
0.06526 0.514 0.163
0.06702 0.485 0.189
0.06888 0.455 0.219
0.06985 0.440 0.231
0.07085 0.426 0.255
0.07187 0.411 0.275
0.07293 0.397 0.296
0.07380 0.386 0.314
0.07424 0.379 0.323
0.07469 0.374 0.333
0.07514 0.369 0.342
0.07630 0.357 0.367
0.07749 0.345 0.394
0.07872 0.333 0.421
0.07999 0.323 0.450
0.08130 0.313 0.479
0.08266 0.304 0.510
0.08406 0.296 0.541
0.08551 0.288 0.573
0.08700 0.281 0.607
0.08856 0.275 0.641
0.09017 0.269 0.677
0.09184 0.265 0.714
0.09357 0.261 0.752
0.09537 0.258 0.792
0.09724 0.256 0.833
0.09919 0.255 0.875
0.10120 0.256 0.918
0.1033 0.257 0.963
0.1055 0.259 1.01
0.1078 0.263 1.06
0.1102 0.267 1.11
0.1127 0.272 1.16
0.1153 0.278 1.21
0.1181 0.286 1.26
0.1210 0.295 1.32
0.1240 0.306 1.38
0.1272 0.318 1.45
0.1305 0.332 1.51
0.1340 0.348 1.58
0.1378 0.367 1.66
0.1417 0.389 1.73
0.1459 0.414 1.82
0.1503 0.444 1.90
0.1550 0.478 2.00
0.1600 0.517 2.10
0.1653 0.563 2.21
0.1710 0.618 2.32
0.1771 0.682 2.45
0.1837 0.756 2.58
0.1907 0.847 2.73
0.1984 0.968 2.89
0.20660 1.11 3.05
0.2066 1.010 2.909
0.2073 1.036 2.928
0.2080 1.046 2.944
0.2087 1.066 2.937
0.2094 1.070 2.963
0.2101 1.083 2.982
0.2109 1.088 2.987
0.2116 1.102 3.005
0.2123 1.109 3.015
0.2130 1.119 3.025
0.21380 1.24 3.18
0.2138 1.133 3.045
0.2145 1.139 3.061
0.2153 1.155 3.073
0.2160 1.164 3.086
0.2168 1.175 3.102
0.2175 1.180 3.112
0.2183 1.195 3.135
0.2191 1.211 3.150
0.2198 1.222 3.169
0.2206 1.235 3.190
0.22140 1.40 3.33
0.2214 1.247 3.206
0.2222 1.265 3.228
0.2230 1.280 3.245
0.2238 1.299 3.267
0.2246 1.319 3.285
0.22540 1.51 3.40
0.2254 1.340 3.302
0.2263 1.362 3.319
0.2271 1.389 3.334
0.2279 1.416 3.350
0.2288 1.445 3.359
0.22960 1.64 3.44
0.2296 1.471 3.366
0.2305 1.502 3.368
0.2313 1.526 3.368
0.2322 1.548 3.364
0.2331 1.566 3.358
0.23390 1.75 3.42
0.2339 1.579 3.353
0.2348 1.585 3.346
0.2357 1.590 3.344
0.2366 1.591 3.344
0.2375 1.592 3.347
0.23840 1.78 3.36
0.2384 1.589 3.354
0.2394 1.586 3.363
0.2403 1.582 3.376
0.2412 1.579 3.389
0.2422 1.573 3.408
0.24310 1.72 3.42
0.2431 1.571 3.429
0.2441 1.570 3.451
0.2450 1.569 3.477
0.2460 1.568 3.504
0.2470 1.569 3.533
0.24800 1.68 3.58
0.2480 1.570 3.565
0.2490 1.575 3.598
0.2500 1.580 3.632
0.2510 1.584 3.670
0.2520 1.591 3.709
0.2530 1.597 3.749
0.2541 1.608 3.789
0.2551 1.618 3.835
0.2562 1.629 3.880
0.2572 1.643 3.928
0.2583 1.658 3.979
0.2594 1.673 4.031
0.2605 1.692 4.088
0.2616 1.713 4.149
0.2627 1.737 4.211
0.2638 1.764 4.278
0.2649 1.794 4.350
0.2661 1.831 4.426
0.2672 1.874 4.506
0.2684 1.927 4.590
0.2695 1.988 4.678
0.2707 2.059 4.764
0.2719 2.140 4.849
0.2731 2.234 4.933
0.2743 2.339 5.011
0.2755 2.451 5.082
0.2768 2.572 5.148
0.2780 2.700 5.206
0.2792 2.833 5.257
0.2805 2.974 5.304
0.2818 3.120 5.344
0.2831 3.277 5.381
0.2844 3.444 5.414
0.2857 3.634 5.435
0.2870 3.849 5.439
0.2883 4.086 5.395
0.2897 4.318 5.301
0.2910 4.525 5.158
0.2924 4.686 4.989
0.2938 4.805 4.812
0.2952 4.888 4.639
0.2966 4.941 4.480
0.2980 4.977 4.335
0.2995 4.999 4.204
0.3009 5.012 4.086
0.3024 5.020 3.979
0.3039 5.021 3.885
0.3054 5.020 3.798
0.3069 5.018 3.720
0.3084 5.015 3.650
0.3100 5.010 3.587
0.3115 5.009 3.529
0.3131 5.010 3.477
0.3147 5.009 3.429
0.3163 5.012 3.386
0.3179 5.016 3.346
0.3195 5.021 3.310
0.3212 5.029 3.275
0.3229 5.040 3.242
0.3246 5.052 3.211
0.3263 5.065 3.182
0.3280 5.079 3.154
0.3297 5.095 3.128
0.3315 5.115 3.103
0.3333 5.134 3.079
0.3351 5.156 3.058
0.3369 5.179 3.039
0.3388 5.204 3.021
0.3406 5.231 3.007
0.3425 5.261 2.995
0.3444 5.296 2.987
0.3463 5.336 2.983
0.3483 5.383 2.984
0.3502 5.442 2.989
0.3522 5.515 2.999
0.3542 5.610 3.014
0.3563 5.733 3.026
0.3583 5.894 3.023
0.3604 6.089 2.982
0.3625 6.308 2.881
0.3647 6.522 2.705
0.3668 6.695 2.456
0.3690 6.796 2.169
0.3712 6.829 1.870
0.3734 6.799 1.571
0.3757 6.709 1.321
0.3780 6.585 1.110
0.3803 6.452 0.945
0.3827 6.316 0.815
0.3850 6.185 0.714
0.3875 6.062 0.630
0.3899 5.948 0.561
0.3924 5.842 0.505
0.3949 5.744 0.456
0.3974 5.654 0.416
0.4000 5.570 0.387
0.4025 5.493 0.355
0.4052 5.420 0.329
0.4078 5.349 0.313
0.4105 5.284 0.291
0.4133 5.222 0.269
0.4161 5.164 0.255
0.4189 5.109 0.244
0.4217 5.058 0.228
0.4246 5.009 0.211
0.4275 4.961 0.203
0.4305 4.916 0.194
0.4335 4.872 0.185
0.4366 4.831 0.185
0.4397 4.791 0.170
0.4428 4.753 0.163
0.4460 4.718 0.149
0.4492 4.682 0.149
0.4525 4.648 0.133
0.4558 4.615 0.131
0.4592 4.583 0.130
0.4626 4.553 0.131
0.4661 4.522 0.134
0.4696 4.495 0.120
0.4732 4.466 0.120
0.4769 4.442 0.090
0.4806 4.416 0.094
0.4843 4.391 0.083
0.4881 4.367 0.079
0.4920 4.343 0.077
0.4959 4.320 0.073
0.4999 4.298 0.073
0.5040 4.277 0.066
0.5081 4.255 0.072
0.5123 4.235 0.060
0.5166 4.215 0.060
0.5209 4.196 0.056
0.5254 4.177 0.053
0.5299 4.159 0.043
0.5344 4.140 0.045
0.5391 4.123 0.048
0.5438 4.106 0.044
0.5486 4.089 0.044
0.5535 4.073 0.032
0.5585 4.057 0.038
0.5636 4.042 0.032
0.5687 4.026 0.034
0.5740 4.012 0.030
0.5794 3.997 0.027
0.5848 3.983 0.030
0.5904 3.969 0.030
0.5961 3.956 0.027
0.6019 3.943 0.025
0.6078 3.931 0.025
0.6138 3.918 0.024
0.6199 3.906 0.022
0.6262 3.893 0.022
0.6326 3.882 0.019
0.6391 3.870 0.018
0.6458 3.858 0.017
0.6526 3.847 0.016
0.6595 3.837 0.016
0.6666 3.826 0.015
0.6738 3.815 0.014
0.6812 3.805 0.013
0.6888 3.796 0.013
0.6965 3.787 0.013
0.7045 3.778 0.012
0.7126 3.768 0.011
0.7208 3.761 0.011
0.7293 3.752 0.010
0.7380 3.745 0.010
0.7469 3.736 0.009
0.7560 3.728 0.009
0.7653 3.721 0.008
0.7749 3.714 0.008
0.7847 3.705 0.007
0.7948 3.697 0.007
0.8051 3.688 0.006
0.8157 3.681 0.006
0.8266 3.673 0.005
0.9686 - 6.4e-4
0.9840 - 5.1e-4
0.9999 - 4.0e-4
1.016 - 2.8e-4
1.033 - 1.8e-4
1.051 - 1.2e-4
1.069 - 6.7e-5
1.088 - 4.2e-5
1.107 - 2.5e-5
1.120 3.5361 -
1.127 - 1.3e-5
1.144 3.5295 -
1.148 - 5.8e-6
1.170 - 1.5e-6
1.200 3.5193 -
1.372 3.5007 -
1.400 3.4876 -
1.532 3.4784 -
1.600 3.4710 -
1.696 3.4644 -
1.800 3.4578 -
2.000 3.4490 -
2.4373 3.4434 -
2.500 3.4424 -
2.7144 3.4393 2.5E-9
3.000 3.4361 -
3.3033 3.4335 -
3.4188 3.4327 -
3.500 3.4321 -
3.80 - 1.3e-8
4.000 3.4294 -
5.000 3.4261 1.99E-7
5.128 - 2.28e-7
5.263 - 2.97e-7
5.405 - 3.26e-7
5.556 - 3.94e-7
5.714 - 4.05e-7
5.882 - 4.17e-7
6.000 3.4242 -
6.061 - 5.64e-7
6.250 - 8.46e-7
6.452 - 1.74e-6
6.667 - 2.66e-6
6.897 - 2.45e-5
7.000 3.4231 -
7.143 - 1.68e-5
7.143 - 1.87e-5
7.407 - 2.62e-5
7.692 - 2.49e-5
7.692 - 2.82e-5
8.000 3.4224 1.53E-5
8.333 - 2.41e-5
8.333 - 2.52e-5
8.696 - 5.13e-5
8.850 - 7.11e-5
8.889 - 6.44e-5
8.929 - 8.38e-5
9.000 3.4219 -
9.009 - 8.46e-5
9.091 - 5.49e-5
9.0091 - 7.38e-5
9.259 - 4.72e-5
9.434 - 3.75e-5
9.615 - 3.67e-5
9.804 - 4.84e-5
10.00 3.4215 6.76E-5
10.20 - 1.09e-4
10.31 - 1.22e-4
10.42 - 1.24e-4
10.53 - 1.22e-4
10.64 - 1.27e-4
10.87 - 1.66e-4
11.11 - 2.02e-4
11.24 - 2.08e-4
11.36 - 2.02e-4
11.49 - 2.01e-4
11.63 - 1.73e-4
11.76 - 1.53e-4
11.90 - 1.44e-4
12.05 - 1.77e-4
12.20 - 2.06e-4
12.35 - 1.97e-4
12.50 - 1.77e-4
12.66 - 2.07e-4
12.82 - 2.14e-4
12.99 - 2.27e-4
13.16 - 2.39e-4
13.33 - 2.59e-4
13.50 3.4209 -
13.51 - 3.12e-4
13.70 - 3.03e-4
13.89 - 2.21e-4
14.08 - 1.57e-4
14.29 - 1.02e-4
14.49 - 1.12e-4
14.50 3.4208 -
14.71 - 1.25e-4
14.93 - 1.24e-4
15.00 3.4207 -
15.15 - 1.41e-4
15.38 - 1.52e-4
15.63 - 1.64e-4
15.87 - 5.05e-4
16.13 - 9.63e-4
16.39 - 1.11e-3
16.50 - 1.25e-3
16.67 - 7.16e-4
16.95 - 4.18e-4
17.24 - 3.65e-4
17.54 - 4.15e-4
17.86 - 3.84e-4
18.52 - 3.40e-4
19.23 - 3.18e-4
20.00 3.4204 2.86E-4
20.83 - 2.22e-4
21.74 - 1.56e-4
22.73 - 1.27e-4
23.81 - 1.06e-4
25.00 3.4201 9.15E-5
25.64 - 9.39e-5
26.32 - 1.05e-4
27.03 - 1.12e-4
27.78 - 1.08e-4
29.41 - 1.08e-4
30.30 3.4200 -
40.00 3.4199 -
50.00 3.4197 -
62.50 3.4195 1.70E-4
71.43 3.4192 1.90E-4
83.33 3.4190 2.30E-4
90.91 3.4188 -
100.0 3.4185 2.90E-4
111.1 - 3.5e-4
125.0 3.4180 4.30E-4
142.9 - 5.5e-4
166.7 3.4170 7.20E-4
200.0 3.4165 1.00E-3
250.0 3.4160 1.40E-3
333.3 3.4155 -
